Wavelength,Responsivity
403,1.4887
403.1,1.4914
403.2,1.4941
403.3,1.4969
403.4,1.4996
403.5,1.5024
403.6,1.5052
403.7,1.5081
403.8,1.5109
403.9,1.5138
404,1.5166
404.1,1.5195
404.2,1.5225
404.3,1.5254
404.4,1.5283
404.5,1.5313
404.6,1.5343
404.7,1.5373
404.8,1.5403
404.9,1.5434
405,1.5464
405.1,1.5495
405.2,1.5526
405.3,1.5557
405.4,1.5589
405.5,1.562
405.6,1.5652
405.7,1.5684
405.8,1.5716
405.9,1.5748
406,1.578
406.1,1.5813
406.2,1.5846
406.3,1.5879
406.4,1.5912
406.5,1.5945
406.6,1.5979
406.7,1.6012
406.8,1.6046
406.9,1.608
407,1.6115
407.1,1.6149
407.2,1.6184
407.3,1.6218
407.4,1.6253
407.5,1.6288
407.6,1.6324
407.7,1.6359
407.8,1.6395
407.9,1.6431
408,1.6467
408.1,1.6503
408.2,1.6539
408.3,1.6576
408.4,1.6613
408.5,1.665
408.6,1.6687
408.7,1.6724
408.8,1.6762
408.9,1.6799
409,1.6837
409.1,1.6875
409.2,1.6913
409.3,1.6952
409.4,1.699
409.5,1.7029
409.6,1.7068
409.7,1.7107
409.8,1.7146
409.9,1.7186
410,1.7226
410.1,1.7265
410.2,1.7305
410.3,1.7346
410.4,1.7386
410.5,1.7427
410.6,1.7467
410.7,1.7508
410.8,1.7549
410.9,1.7591
411,1.7632
411.1,1.7674
411.2,1.7716
411.3,1.7758
411.4,1.78
411.5,1.7842
411.6,1.7885
411.7,1.7928
411.8,1.797
411.9,1.8014
412,1.8057
412.1,1.81
412.2,1.8144
412.3,1.8188
412.4,1.8232
412.5,1.8276
412.6,1.832
412.7,1.8365
412.8,1.841
412.9,1.8455
413,1.85
413.1,1.8545
413.2,1.859
413.3,1.8636
413.4,1.8682
413.5,1.8728
413.6,1.8774
413.7,1.882
413.8,1.8867
413.9,1.8914
414,1.896
414.1,1.9008
414.2,1.9055
414.3,1.9102
414.4,1.915
414.5,1.9198
414.6,1.9246
414.7,1.9294
414.8,1.9342
414.9,1.9391
415,1.9439
415.1,1.9488
415.2,1.9537
415.3,1.9587
415.4,1.9636
415.5,1.9685
415.6,1.9734
415.7,1.9783
415.8,1.983
415.9,1.9878
416,1.9925
416.1,1.9971
416.2,2.0018
416.3,2.0063
416.4,2.0108
416.5,2.0153
416.6,2.0197
416.7,2.0241
416.8,2.0285
416.9,2.0328
417,2.037
417.1,2.0412
417.2,2.0454
417.3,2.0495
417.4,2.0536
417.5,2.0576
417.6,2.0616
417.7,2.0655
417.8,2.0694
417.9,2.0732
418,2.077
418.1,2.0808
418.2,2.0845
418.3,2.0882
418.4,2.0918
418.5,2.0954
418.6,2.0989
418.7,2.1024
418.8,2.1058
418.9,2.1092
419,2.1126
419.1,2.1159
419.2,2.1191
419.3,2.1224
419.4,2.1255
419.5,2.1287
419.6,2.1317
419.7,2.1348
419.8,2.1378
419.9,2.1407
420,2.1436
420.1,2.1465
420.2,2.1493
420.3,2.152
420.4,2.1548
420.5,2.1574
420.6,2.1601
420.7,2.1627
420.8,2.1652
420.9,2.1677
421,2.1701
421.1,2.1725
421.2,2.1749
421.3,2.1772
421.4,2.1795
421.5,2.1817
421.6,2.1839
421.7,2.186
421.8,2.1881
421.9,2.1902
422,2.1922
422.1,2.1941
422.2,2.196
422.3,2.1979
422.4,2.1997
422.5,2.2015
422.6,2.2032
422.7,2.2049
422.8,2.2066
422.9,2.2082
423,2.2097
423.1,2.2112
423.2,2.2127
423.3,2.2141
423.4,2.2155
423.5,2.2168
423.6,2.2181
423.7,2.2193
423.8,2.2205
423.9,2.2216
424,2.2227
424.1,2.2238
424.2,2.2248
424.3,2.2258
424.4,2.2267
424.5,2.2276
424.6,2.2286
424.7,2.2296
424.8,2.2307
424.9,2.2318
425,2.233
425.1,2.2342
425.2,2.2355
425.3,2.2368
425.4,2.2382
425.5,2.2396
425.6,2.2411
425.7,2.2426
425.8,2.2442
425.9,2.2458
426,2.2475
426.1,2.2492
426.2,2.251
426.3,2.2528
426.4,2.2547
426.5,2.2566
426.6,2.2585
426.7,2.2606
426.8,2.2626
426.9,2.2647
427,2.2669
427.1,2.2691
427.2,2.2714
427.3,2.2737
427.4,2.2761
427.5,2.2785
427.6,2.281
427.7,2.2835
427.8,2.286
427.9,2.2886
428,2.2913
428.1,2.294
428.2,2.2968
428.3,2.2996
428.4,2.3024
428.5,2.3054
428.6,2.3083
428.7,2.3113
428.8,2.3144
428.9,2.3175
429,2.3207
429.1,2.3239
429.2,2.3271
429.3,2.3304
429.4,2.3338
429.5,2.3372
429.6,2.3406
429.7,2.3441
429.8,2.3477
429.9,2.3513
430,2.355
430.1,2.3587
430.2,2.3624
430.3,2.3662
430.4,2.3701
430.5,2.374
430.6,2.3779
430.7,2.3819
430.8,2.386
430.9,2.3901
431,2.3942
431.1,2.3984
431.2,2.4027
431.3,2.407
431.4,2.4113
431.5,2.4157
431.6,2.4201
431.7,2.4246
431.8,2.4292
431.9,2.4338
432,2.4384
432.1,2.4431
432.2,2.4479
432.3,2.4527
432.4,2.4575
432.5,2.4624
432.6,2.4673
432.7,2.4723
432.8,2.4774
432.9,2.4825
433,2.4876
433.1,2.4928
433.2,2.498
433.3,2.5033
433.4,2.5087
433.5,2.514
433.6,2.5195
433.7,2.525
433.8,2.5305
433.9,2.5361
434,2.5417
434.1,2.5474
434.2,2.5531
434.3,2.5589
434.4,2.5648
434.5,2.5706
434.6,2.5766
434.7,2.5826
434.8,2.5886
434.9,2.5947
435,2.6008
435.1,2.6069
435.2,2.613
435.3,2.6192
435.4,2.6253
435.5,2.6315
435.6,2.6377
435.7,2.6439
435.8,2.6501
435.9,2.6564
436,2.6626
436.1,2.6689
436.2,2.6752
436.3,2.6815
436.4,2.6878
436.5,2.6942
436.6,2.7005
436.7,2.7069
436.8,2.7133
436.9,2.7197
437,2.7261
437.1,2.7326
437.2,2.739
437.3,2.7455
437.4,2.752
437.5,2.7585
437.6,2.765
437.7,2.7715
437.8,2.7781
437.9,2.7846
438,2.7912
438.1,2.7978
438.2,2.8044
438.3,2.8111
438.4,2.8177
438.5,2.8244
438.6,2.8311
438.7,2.8378
438.8,2.8445
438.9,2.8512
439,2.8579
439.1,2.8647
439.2,2.8715
439.3,2.8783
439.4,2.8851
439.5,2.8919
439.6,2.8987
439.7,2.9056
439.8,2.9125
439.9,2.9194
440,2.9263
440.1,2.9332
440.2,2.9401
440.3,2.9471
440.4,2.9541
440.5,2.961
440.6,2.968
440.7,2.9751
440.8,2.9821
440.9,2.9892
441,2.9962
441.1,3.0033
441.2,3.0104
441.3,3.0175
441.4,3.0247
441.5,3.0318
441.6,3.039
441.7,3.0461
441.8,3.0533
441.9,3.0606
442,3.0678
442.1,3.075
442.2,3.0823
442.3,3.0896
442.4,3.0969
442.5,3.1042
442.6,3.1115
442.7,3.1188
442.8,3.1262
442.9,3.1336
443,3.141
443.1,3.1484
443.2,3.1558
443.3,3.1632
443.4,3.1707
443.5,3.1782
443.6,3.1857
443.7,3.1932
443.8,3.2007
443.9,3.2082
444,3.2158
444.1,3.2233
444.2,3.2309
444.3,3.2385
444.4,3.2461
444.5,3.2538
444.6,3.2614
444.7,3.2691
444.8,3.2768
444.9,3.2845
445,3.2922
445.1,3.2999
445.2,3.3077
445.3,3.3154
445.4,3.3232
445.5,3.331
445.6,3.3388
445.7,3.3466
445.8,3.3545
445.9,3.3623
446,3.3702
446.1,3.3781
446.2,3.386
446.3,3.3939
446.4,3.4019
446.5,3.4098
446.6,3.4178
446.7,3.4258
446.8,3.4338
446.9,3.4419
447,3.4499
447.1,3.458
447.2,3.4661
447.3,3.4742
447.4,3.4823
447.5,3.4904
447.6,3.4986
447.7,3.5068
447.8,3.515
447.9,3.5232
448,3.5314
448.1,3.5397
448.2,3.548
448.3,3.5562
448.4,3.5646
448.5,3.5729
448.6,3.5812
448.7,3.5896
448.8,3.598
448.9,3.6064
449,3.6148
449.1,3.6232
449.2,3.6317
449.3,3.6402
449.4,3.6487
449.5,3.6572
449.6,3.6657
449.7,3.6743
449.8,3.6829
449.9,3.6914
450,3.7001
450.1,3.7087
450.2,3.7173
450.3,3.726
450.4,3.7347
450.5,3.7434
450.6,3.7521
450.7,3.7608
450.8,3.7696
450.9,3.7784
451,3.7872
451.1,3.796
451.2,3.8048
451.3,3.8137
451.4,3.8225
451.5,3.8314
451.6,3.8403
451.7,3.8493
451.8,3.8582
451.9,3.8672
452,3.8761
452.1,3.8851
452.2,3.8942
452.3,3.9032
452.4,3.9123
452.5,3.9213
452.6,3.9304
452.7,3.9395
452.8,3.9487
452.9,3.9578
453,3.967
453.1,3.9762
453.2,3.9854
453.3,3.9946
453.4,4.0038
453.5,4.0131
453.6,4.0224
453.7,4.0317
453.8,4.041
453.9,4.0503
454,4.0597
454.1,4.0691
454.2,4.0784
454.3,4.0879
454.4,4.0973
454.5,4.1067
454.6,4.1162
454.7,4.1257
454.8,4.1352
454.9,4.1447
455,4.1542
455.1,4.1638
455.2,4.1734
455.3,4.183
455.4,4.1926
455.5,4.2022
455.6,4.2119
455.7,4.2216
455.8,4.2312
455.9,4.2409
456,4.2507
456.1,4.2604
456.2,4.2702
456.3,4.28
456.4,4.2898
456.5,4.2996
456.6,4.3094
456.7,4.3193
456.8,4.3292
456.9,4.3391
457,4.349
457.1,4.3589
457.2,4.3688
457.3,4.3788
457.4,4.3888
457.5,4.3988
457.6,4.4088
457.7,4.4189
457.8,4.4289
457.9,4.439
458,4.4491
458.1,4.4592
458.2,4.4694
458.3,4.4796
458.4,4.4898
458.5,4.5001
458.6,4.5104
458.7,4.5207
458.8,4.5311
458.9,4.5415
459,4.5519
459.1,4.5624
459.2,4.5729
459.3,4.5835
459.4,4.5941
459.5,4.6047
459.6,4.6154
459.7,4.6261
459.8,4.6368
459.9,4.6476
460,4.6584
460.1,4.6693
460.2,4.6802
460.3,4.6911
460.4,4.7021
460.5,4.7131
460.6,4.7241
460.7,4.7352
460.8,4.7463
460.9,4.7575
461,4.7687
461.1,4.7799
461.2,4.7912
461.3,4.8025
461.4,4.8138
461.5,4.8252
461.6,4.8366
461.7,4.8481
461.8,4.8595
461.9,4.8711
462,4.8826
462.1,4.8942
462.2,4.9059
462.3,4.9175
462.4,4.9293
462.5,4.941
462.6,4.9528
462.7,4.9646
462.8,4.9765
462.9,4.9884
463,5.0003
463.1,5.0123
463.2,5.0243
463.3,5.0363
463.4,5.0484
463.5,5.0605
463.6,5.0727
463.7,5.0849
463.8,5.0971
463.9,5.1094
464,5.1217
464.1,5.134
464.2,5.1464
464.3,5.1588
464.4,5.1713
464.5,5.1838
464.6,5.1963
464.7,5.2089
464.8,5.2215
464.9,5.2341
465,5.2468
465.1,5.2595
465.2,5.2723
465.3,5.2851
465.4,5.2979
465.5,5.3108
465.6,5.3237
465.7,5.3366
465.8,5.3496
465.9,5.3626
466,5.3757
466.1,5.3887
466.2,5.4019
466.3,5.415
466.4,5.4282
466.5,5.4415
466.6,5.4547
466.7,5.4681
466.8,5.4814
466.9,5.4948
467,5.5082
467.1,5.5217
467.2,5.5352
467.3,5.5487
467.4,5.5623
467.5,5.5759
467.6,5.5895
467.7,5.6032
467.8,5.6169
467.9,5.6307
468,5.6445
468.1,5.6583
468.2,5.6722
468.3,5.6861
468.4,5.7
468.5,5.714
468.6,5.728
468.7,5.7421
468.8,5.7562
468.9,5.7703
469,5.7845
469.1,5.7987
469.2,5.8129
469.3,5.8271
469.4,5.8413
469.5,5.8554
469.6,5.8695
469.7,5.8835
469.8,5.8976
469.9,5.9116
470,5.9255
470.1,5.9395
470.2,5.9534
470.3,5.9672
470.4,5.9811
470.5,5.9949
470.6,6.0086
470.7,6.0224
470.8,6.0361
470.9,6.0498
471,6.0634
471.1,6.077
471.2,6.0906
471.3,6.1042
471.4,6.1177
471.5,6.1312
471.6,6.1446
471.7,6.158
471.8,6.1714
471.9,6.1848
472,6.1981
472.1,6.2114
472.2,6.2246
472.3,6.2379
472.4,6.2511
472.5,6.2642
472.6,6.2774
472.7,6.2905
472.8,6.3035
472.9,6.3166
473,6.3296
473.1,6.3425
473.2,6.3555
473.3,6.3684
473.4,6.3813
473.5,6.3941
473.6,6.4069
473.7,6.4197
473.8,6.4324
473.9,6.4452
474,6.4578
474.1,6.4705
474.2,6.4831
474.3,6.4957
474.4,6.5083
474.5,6.5208
474.6,6.5333
474.7,6.5457
474.8,6.5582
474.9,6.5705
475,6.5829
475.1,6.5952
475.2,6.6075
475.3,6.6198
475.4,6.632
475.5,6.6442
475.6,6.6564
475.7,6.6686
475.8,6.6807
475.9,6.6927
476,6.7048
476.1,6.7168
476.2,6.7288
476.3,6.7407
476.4,6.7526
476.5,6.7645
476.6,6.7764
476.7,6.7882
476.8,6.8
476.9,6.8117
477,6.8234
477.1,6.8351
477.2,6.8468
477.3,6.8584
477.4,6.87
477.5,6.8816
477.6,6.8931
477.7,6.9046
477.8,6.9161
477.9,6.9275
478,6.9389
478.1,6.9503
478.2,6.9616
478.3,6.9729
478.4,6.9842
478.5,6.9954
478.6,7.0067
478.7,7.0178
478.8,7.029
478.9,7.0401
479,7.0512
479.1,7.0622
479.2,7.0732
479.3,7.0842
479.4,7.0952
479.5,7.1061
479.6,7.117
479.7,7.1279
479.8,7.1388
479.9,7.1497
480,7.1607
480.1,7.1717
480.2,7.1827
480.3,7.1937
480.4,7.2047
480.5,7.2157
480.6,7.2268
480.7,7.2379
480.8,7.249
480.9,7.2601
481,7.2713
481.1,7.2824
481.2,7.2936
481.3,7.3048
481.4,7.316
481.5,7.3273
481.6,7.3385
481.7,7.3498
481.8,7.3611
481.9,7.3724
482,7.3838
482.1,7.3951
482.2,7.4065
482.3,7.4179
482.4,7.4293
482.5,7.4407
482.6,7.4522
482.7,7.4636
482.8,7.4751
482.9,7.4866
483,7.4981
483.1,7.5097
483.2,7.5212
483.3,7.5328
483.4,7.5444
483.5,7.556
483.6,7.5677
483.7,7.5793
483.8,7.591
483.9,7.6027
484,7.6144
484.1,7.6261
484.2,7.6379
484.3,7.6497
484.4,7.6614
484.5,7.6733
484.6,7.6851
484.7,7.6969
484.8,7.7088
484.9,7.7207
485,7.7326
485.1,7.7445
485.2,7.7564
485.3,7.7684
485.4,7.7804
485.5,7.7924
485.6,7.8044
485.7,7.8164
485.8,7.8285
485.9,7.8406
486,7.8527
486.1,7.8648
486.2,7.8769
486.3,7.889
486.4,7.9012
486.5,7.9134
486.6,7.9256
486.7,7.9378
486.8,7.9501
486.9,7.9623
487,7.9746
487.1,7.9869
487.2,7.9992
487.3,8.0116
487.4,8.0239
487.5,8.0363
487.6,8.0487
487.7,8.0611
487.8,8.0736
487.9,8.086
488,8.0985
488.1,8.111
488.2,8.1235
488.3,8.136
488.4,8.1486
488.5,8.1611
488.6,8.1737
488.7,8.1863
488.8,8.199
488.9,8.2116
489,8.2243
489.1,8.2369
489.2,8.2496
489.3,8.2624
489.4,8.2751
489.5,8.2879
489.6,8.3006
489.7,8.3134
489.8,8.3262
489.9,8.3391
490,8.3519
490.1,8.3648
490.2,8.3777
490.3,8.3906
490.4,8.4035
490.5,8.4165
490.6,8.4294
490.7,8.4424
490.8,8.4554
490.9,8.4684
491,8.4814
491.1,8.4944
491.2,8.5074
491.3,8.5204
491.4,8.5334
491.5,8.5465
491.6,8.5595
491.7,8.5726
491.8,8.5856
491.9,8.5987
492,8.6117
492.1,8.6248
492.2,8.6379
492.3,8.6509
492.4,8.664
492.5,8.6771
492.6,8.6902
492.7,8.7033
492.8,8.7164
492.9,8.7296
493,8.7427
493.1,8.7558
493.2,8.7689
493.3,8.7821
493.4,8.7952
493.5,8.8084
493.6,8.8216
493.7,8.8347
493.8,8.8479
493.9,8.8611
494,8.8743
494.1,8.8875
494.2,8.9007
494.3,8.9139
494.4,8.9271
494.5,8.9403
494.6,8.9535
494.7,8.9667
494.8,8.98
494.9,8.9932
495,9.0065
495.1,9.0197
495.2,9.033
495.3,9.0463
495.4,9.0595
495.5,9.0728
495.6,9.0861
495.7,9.0994
495.8,9.1127
495.9,9.126
496,9.1393
496.1,9.1526
496.2,9.166
496.3,9.1793
496.4,9.1926
496.5,9.206
496.6,9.2193
496.7,9.2327
496.8,9.246
496.9,9.2594
497,9.2728
497.1,9.2862
497.2,9.2995
497.3,9.3129
497.4,9.3263
497.5,9.3397
497.6,9.3532
497.7,9.3666
497.8,9.38
497.9,9.3934
498,9.4069
498.1,9.4203
498.2,9.4338
498.3,9.4472
498.4,9.4607
498.5,9.4741
498.6,9.4876
498.7,9.5011
498.8,9.5146
498.9,9.5281
499,9.5416
499.1,9.5551
499.2,9.5686
499.3,9.5821
499.4,9.5956
499.5,9.6092
499.6,9.6227
499.7,9.6363
499.8,9.6498
499.9,9.6634
500,9.6769
500.1,9.6905
500.2,9.7041
500.3,9.7177
500.4,9.7312
500.5,9.7448
500.6,9.7584
500.7,9.772
500.8,9.7857
500.9,9.7993
501,9.8129
501.1,9.8265
501.2,9.8402
501.3,9.8538
501.4,9.8675
501.5,9.8811
501.6,9.8948
501.7,9.9084
501.8,9.9221
501.9,9.9358
502,9.9495
502.1,9.9632
502.2,9.9769
502.3,9.9906
502.4,10.0044
502.5,10.0182
502.6,10.0321
502.7,10.046
502.8,10.06
502.9,10.074
503,10.0881
503.1,10.1023
503.2,10.1165
503.3,10.1307
503.4,10.145
503.5,10.1594
503.6,10.1738
503.7,10.1883
503.8,10.2028
503.9,10.2174
504,10.232
504.1,10.2467
504.2,10.2614
504.3,10.2762
504.4,10.2911
504.5,10.3059
504.6,10.3209
504.7,10.3359
504.8,10.351
504.9,10.3661
505,10.3812
505.1,10.3964
505.2,10.4117
505.3,10.427
505.4,10.4424
505.5,10.4578
505.6,10.4733
505.7,10.4889
505.8,10.5045
505.9,10.5201
506,10.5358
506.1,10.5516
506.2,10.5674
506.3,10.5832
506.4,10.5991
506.5,10.6151
506.6,10.6311
506.7,10.6472
506.8,10.6633
506.9,10.6795
507,10.6957
507.1,10.712
507.2,10.7284
507.3,10.7448
507.4,10.7612
507.5,10.7777
507.6,10.7943
507.7,10.8109
507.8,10.8275
507.9,10.8442
508,10.861
508.1,10.8778
508.2,10.8947
508.3,10.9116
508.4,10.9286
508.5,10.9457
508.6,10.9628
508.7,10.9799
508.8,10.9971
508.9,11.0143
509,11.0317
509.1,11.049
509.2,11.0664
509.3,11.0839
509.4,11.1014
509.5,11.119
509.6,11.1366
509.7,11.1543
509.8,11.172
509.9,11.1898
510,11.2076
510.1,11.2255
510.2,11.2435
510.3,11.2615
510.4,11.2795
510.5,11.2976
510.6,11.3158
510.7,11.334
510.8,11.3523
510.9,11.3706
511,11.389
511.1,11.4074
511.2,11.4259
511.3,11.4444
511.4,11.463
511.5,11.4817
511.6,11.5004
511.7,11.5191
511.8,11.5379
511.9,11.5568
512,11.5757
512.1,11.5946
512.2,11.6137
512.3,11.6327
512.4,11.6519
512.5,11.671
512.6,11.6903
512.7,11.7096
512.8,11.7289
512.9,11.7483
513,11.7677
513.1,11.7872
513.2,11.8068
513.3,11.8264
513.4,11.846
513.5,11.8658
513.6,11.8855
513.7,11.9052
513.8,11.9249
513.9,11.9446
514,11.9642
514.1,11.9838
514.2,12.0033
514.3,12.0229
514.4,12.0423
514.5,12.0618
514.6,12.0812
514.7,12.1005
514.8,12.1198
514.9,12.1391
515,12.1584
515.1,12.1776
515.2,12.1968
515.3,12.2159
515.4,12.235
515.5,12.254
515.6,12.2731
515.7,12.2921
515.8,12.311
515.9,12.3299
516,12.3488
516.1,12.3676
516.2,12.3864
516.3,12.4052
516.4,12.4239
516.5,12.4426
516.6,12.4613
516.7,12.4799
516.8,12.4984
516.9,12.517
517,12.5355
517.1,12.554
517.2,12.5724
517.3,12.5908
517.4,12.6091
517.5,12.6274
517.6,12.6457
517.7,12.664
517.8,12.6822
517.9,12.7003
518,12.7185
518.1,12.7365
518.2,12.7546
518.3,12.7726
518.4,12.7906
518.5,12.8085
518.6,12.8264
518.7,12.8443
518.8,12.8621
518.9,12.8799
519,12.8977
519.1,12.9154
519.2,12.9331
519.3,12.9507
519.4,12.9683
519.5,12.9859
519.6,13.0034
519.7,13.0209
519.8,13.0384
519.9,13.0558
520,13.0732
520.1,13.0905
520.2,13.1079
520.3,13.1251
520.4,13.1424
520.5,13.1596
520.6,13.1767
520.7,13.1938
520.8,13.2109
520.9,13.228
521,13.245
521.1,13.262
521.2,13.2789
521.3,13.2958
521.4,13.3126
521.5,13.3295
521.6,13.3463
521.7,13.363
521.8,13.3797
521.9,13.3964
522,13.413
522.1,13.4296
522.2,13.4462
522.3,13.4627
522.4,13.4792
522.5,13.4957
522.6,13.5121
522.7,13.5284
522.8,13.5448
522.9,13.5611
523,13.5774
523.1,13.5936
523.2,13.6098
523.3,13.6259
523.4,13.642
523.5,13.6581
523.6,13.6742
523.7,13.6902
523.8,13.7061
523.9,13.7221
524,13.7379
524.1,13.7538
524.2,13.7696
524.3,13.7854
524.4,13.8011
524.5,13.8168
524.6,13.8325
524.7,13.8481
524.8,13.8637
524.9,13.8793
525,13.8948
525.1,13.9103
525.2,13.9257
525.3,13.9411
525.4,13.9565
525.5,13.9718
525.6,13.9871
525.7,14.0024
525.8,14.0176
525.9,14.0329
526,14.0482
526.1,14.0636
526.2,14.079
526.3,14.0945
526.4,14.11
526.5,14.1256
526.6,14.1412
526.7,14.1569
526.8,14.1726
526.9,14.1884
527,14.2042
527.1,14.2201
527.2,14.236
527.3,14.252
527.4,14.268
527.5,14.2841
527.6,14.3002
527.7,14.3164
527.8,14.3326
527.9,14.3489
528,14.3652
528.1,14.3816
528.2,14.3981
528.3,14.4145
528.4,14.4311
528.5,14.4477
528.6,14.4643
528.7,14.481
528.8,14.4977
528.9,14.5145
529,14.5313
529.1,14.5482
529.2,14.5651
529.3,14.5821
529.4,14.5992
529.5,14.6163
529.6,14.6334
529.7,14.6506
529.8,14.6678
529.9,14.6851
530,14.7025
530.1,14.7198
530.2,14.7373
530.3,14.7548
530.4,14.7723
530.5,14.7899
530.6,14.8076
530.7,14.8253
530.8,14.843
530.9,14.8608
531,14.8786
531.1,14.8965
531.2,14.9145
531.3,14.9325
531.4,14.9505
531.5,14.9686
531.6,14.9868
531.7,15.005
531.8,15.0232
531.9,15.0415
532,15.0599
532.1,15.0783
532.2,15.0967
532.3,15.1152
532.4,15.1338
532.5,15.1524
532.6,15.171
532.7,15.1897
532.8,15.2085
532.9,15.2273
533,15.2462
533.1,15.2651
533.2,15.284
533.3,15.303
533.4,15.3221
533.5,15.3412
533.6,15.3603
533.7,15.3796
533.8,15.3988
533.9,15.4181
534,15.4375
534.1,15.4569
534.2,15.4764
534.3,15.4959
534.4,15.5154
534.5,15.535
534.6,15.5547
534.7,15.5744
534.8,15.5942
534.9,15.614
535,15.6339
535.1,15.6538
535.2,15.6737
535.3,15.6938
535.4,15.7138
535.5,15.7339
535.6,15.7541
535.7,15.7743
535.8,15.7946
535.9,15.8149
536,15.8353
536.1,15.8557
536.2,15.8762
536.3,15.8967
536.4,15.9173
536.5,15.9379
536.6,15.9586
536.7,15.9793
536.8,16.0001
536.9,16.0209
537,16.0418
537.1,16.0627
537.2,16.0837
537.3,16.1047
537.4,16.1258
537.5,16.1468
537.6,16.1678
537.7,16.1887
537.8,16.2096
537.9,16.2304
538,16.2511
538.1,16.2718
538.2,16.2924
538.3,16.313
538.4,16.3335
538.5,16.354
538.6,16.3744
538.7,16.3948
538.8,16.4151
538.9,16.4353
539,16.4555
539.1,16.4756
539.2,16.4956
539.3,16.5156
539.4,16.5356
539.5,16.5555
539.6,16.5753
539.7,16.5951
539.8,16.6148
539.9,16.6345
540,16.6541
540.1,16.6736
540.2,16.6931
540.3,16.7125
540.4,16.7319
540.5,16.7512
540.6,16.7705
540.7,16.7897
540.8,16.8088
540.9,16.8279
541,16.8469
541.1,16.8659
541.2,16.8848
541.3,16.9037
541.4,16.9225
541.5,16.9412
541.6,16.9599
541.7,16.9785
541.8,16.9971
541.9,17.0156
542,17.034
542.1,17.0524
542.2,17.0708
542.3,17.0891
542.4,17.1073
542.5,17.1254
542.6,17.1436
542.7,17.1616
542.8,17.1796
542.9,17.1975
543,17.2154
543.1,17.2332
543.2,17.251
543.3,17.2687
543.4,17.2864
543.5,17.304
543.6,17.3215
543.7,17.339
543.8,17.3564
543.9,17.3737
544,17.3911
544.1,17.4083
544.2,17.4255
544.3,17.4426
544.4,17.4597
544.5,17.4767
544.6,17.4937
544.7,17.5106
544.8,17.5274
544.9,17.5442
545,17.5609
545.1,17.5776
545.2,17.5942
545.3,17.6108
545.4,17.6273
545.5,17.6437
545.6,17.6601
545.7,17.6764
545.8,17.6927
545.9,17.7089
546,17.7251
546.1,17.7412
546.2,17.7572
546.3,17.7732
546.4,17.7891
546.5,17.805
546.6,17.8208
546.7,17.8366
546.8,17.8523
546.9,17.8679
547,17.8835
547.1,17.899
547.2,17.9145
547.3,17.9299
547.4,17.9452
547.5,17.9605
547.6,17.9758
547.7,17.991
547.8,18.0061
547.9,18.0211
548,18.0362
548.1,18.0511
548.2,18.066
548.3,18.0808
548.4,18.0956
548.5,18.1104
548.6,18.1252
548.7,18.14
548.8,18.1548
548.9,18.1696
549,18.1845
549.1,18.1994
549.2,18.2144
549.3,18.2293
549.4,18.2443
549.5,18.2593
549.6,18.2743
549.7,18.2894
549.8,18.3044
549.9,18.3195
550,18.3346
550.1,18.3498
550.2,18.365
550.3,18.3802
550.4,18.3954
550.5,18.4106
550.6,18.4259
550.7,18.4412
550.8,18.4565
550.9,18.4718
551,18.4872
551.1,18.5026
551.2,18.518
551.3,18.5334
551.4,18.5489
551.5,18.5643
551.6,18.5799
551.7,18.5954
551.8,18.6109
551.9,18.6265
552,18.6421
552.1,18.6577
552.2,18.6734
552.3,18.6891
552.4,18.7048
552.5,18.7205
552.6,18.7362
552.7,18.752
552.8,18.7678
552.9,18.7836
553,18.7995
553.1,18.8153
553.2,18.8312
553.3,18.8471
553.4,18.8631
553.5,18.879
553.6,18.895
553.7,18.911
553.8,18.9271
553.9,18.9431
554,18.9592
554.1,18.9753
554.2,18.9915
554.3,19.0076
554.4,19.0238
554.5,19.04
554.6,19.0562
554.7,19.0725
554.8,19.0888
554.9,19.1051
555,19.1214
555.1,19.1377
555.2,19.1541
555.3,19.1705
555.4,19.1869
555.5,19.2034
555.6,19.2199
555.7,19.2363
555.8,19.2529
555.9,19.2694
556,19.286
556.1,19.3026
556.2,19.3192
556.3,19.3358
556.4,19.3525
556.5,19.3692
556.6,19.3859
556.7,19.4026
556.8,19.4194
556.9,19.4362
557,19.453
557.1,19.4698
557.2,19.4866
557.3,19.5035
557.4,19.5204
557.5,19.5374
557.6,19.5543
557.7,19.5713
557.8,19.5883
557.9,19.6053
558,19.6224
558.1,19.6394
558.2,19.6565
558.3,19.6736
558.4,19.6908
558.5,19.708
558.6,19.7252
558.7,19.7424
558.8,19.7596
558.9,19.7769
559,19.7942
559.1,19.8115
559.2,19.8288
559.3,19.8462
559.4,19.8636
559.5,19.881
559.6,19.8984
559.7,19.9159
559.8,19.9333
559.9,19.9508
560,19.9684
560.1,19.9859
560.2,20.0035
560.3,20.0211
560.4,20.0387
560.5,20.0564
560.6,20.0741
560.7,20.0918
560.8,20.1095
560.9,20.1272
561,20.145
561.1,20.1628
561.2,20.1806
561.3,20.1985
561.4,20.2163
561.5,20.2342
561.6,20.2521
561.7,20.27
561.8,20.2879
561.9,20.3057
562,20.3236
562.1,20.3414
562.2,20.3593
562.3,20.3771
562.4,20.3949
562.5,20.4127
562.6,20.4305
562.7,20.4483
562.8,20.4661
562.9,20.4839
563,20.5016
563.1,20.5194
563.2,20.5371
563.3,20.5549
563.4,20.5726
563.5,20.5903
563.6,20.608
563.7,20.6258
563.8,20.6434
563.9,20.6611
564,20.6788
564.1,20.6965
564.2,20.7141
564.3,20.7318
564.4,20.7494
564.5,20.7671
564.6,20.7847
564.7,20.8023
564.8,20.8199
564.9,20.8375
565,20.8551
565.1,20.8727
565.2,20.8903
565.3,20.9078
565.4,20.9254
565.5,20.9429
565.6,20.9605
565.7,20.978
565.8,20.9955
565.9,21.013
566,21.0305
566.1,21.048
566.2,21.0655
566.3,21.083
566.4,21.1005
566.5,21.1179
566.6,21.1354
566.7,21.1528
566.8,21.1702
566.9,21.1877
567,21.2051
567.1,21.2225
567.2,21.2399
567.3,21.2573
567.4,21.2746
567.5,21.292
567.6,21.3094
567.7,21.3267
567.8,21.3441
567.9,21.3614
568,21.3787
568.1,21.396
568.2,21.4134
568.3,21.4307
568.4,21.4479
568.5,21.4652
568.6,21.4825
568.7,21.4998
568.8,21.517
568.9,21.5343
569,21.5515
569.1,21.5687
569.2,21.586
569.3,21.6032
569.4,21.6204
569.5,21.6376
569.6,21.6548
569.7,21.6719
569.8,21.6891
569.9,21.7063
570,21.7234
570.1,21.7405
570.2,21.7577
570.3,21.7748
570.4,21.7919
570.5,21.809
570.6,21.8261
570.7,21.8432
570.8,21.8603
570.9,21.8774
571,21.8944
571.1,21.9115
571.2,21.9285
571.3,21.9456
571.4,21.9626
571.5,21.9796
571.6,21.9966
571.7,22.0136
571.8,22.0306
571.9,22.0476
572,22.0646
572.1,22.0815
572.2,22.0985
572.3,22.1154
572.4,22.1324
572.5,22.1493
572.6,22.1662
572.7,22.1831
572.8,22.2
572.9,22.2169
573,22.2338
573.1,22.2507
573.2,22.2676
573.3,22.2844
573.4,22.3013
573.5,22.3181
573.6,22.335
573.7,22.3518
573.8,22.3686
573.9,22.3854
574,22.4022
574.1,22.419
574.2,22.4358
574.3,22.4525
574.4,22.4693
574.5,22.4861
574.6,22.5028
574.7,22.5195
574.8,22.5363
574.9,22.553
575,22.5697
575.1,22.5864
575.2,22.6031
575.3,22.6198
575.4,22.6364
575.5,22.6531
575.6,22.6698
575.7,22.6864
575.8,22.7031
575.9,22.7197
576,22.7363
576.1,22.7529
576.2,22.7695
576.3,22.7861
576.4,22.8027
576.5,22.8192
576.6,22.8358
576.7,22.8524
576.8,22.8689
576.9,22.8854
577,22.902
577.1,22.9185
577.2,22.935
577.3,22.9515
577.4,22.968
577.5,22.9844
577.6,23.0009
577.7,23.0174
577.8,23.0338
577.9,23.0503
578,23.0667
578.1,23.0831
578.2,23.0995
578.3,23.1159
578.4,23.1323
578.5,23.1487
578.6,23.1651
578.7,23.1814
578.8,23.1978
578.9,23.2141
579,23.2305
579.1,23.2468
579.2,23.2631
579.3,23.2794
579.4,23.2957
579.5,23.312
579.6,23.3283
579.7,23.3446
579.8,23.3608
579.9,23.3771
580,23.3933
580.1,23.4096
580.2,23.4258
580.3,23.442
580.4,23.4582
580.5,23.4744
580.6,23.4906
580.7,23.5068
580.8,23.5229
580.9,23.5391
581,23.5553
581.1,23.5714
581.2,23.5875
581.3,23.6036
581.4,23.6198
581.5,23.6359
581.6,23.652
581.7,23.668
581.8,23.6841
581.9,23.7002
582,23.7162
582.1,23.7323
582.2,23.7483
582.3,23.7644
582.4,23.7804
582.5,23.7964
582.6,23.8124
582.7,23.8284
582.8,23.8444
582.9,23.8603
583,23.8763
583.1,23.8922
583.2,23.9082
583.3,23.9241
583.4,23.94
583.5,23.956
583.6,23.9719
583.7,23.9878
583.8,24.0037
583.9,24.0195
584,24.0354
584.1,24.0513
584.2,24.0671
584.3,24.083
584.4,24.0988
584.5,24.1146
584.6,24.1304
584.7,24.1462
584.8,24.162
584.9,24.1778
585,24.1936
585.1,24.2094
585.2,24.2251
585.3,24.2409
585.4,24.2566
585.5,24.2723
585.6,24.288
585.7,24.3038
585.8,24.3195
585.9,24.3352
586,24.3508
586.1,24.3665
586.2,24.3822
586.3,24.3978
586.4,24.4135
586.5,24.4291
586.6,24.4447
586.7,24.4603
586.8,24.476
586.9,24.4916
587,24.5071
587.1,24.5227
587.2,24.5383
587.3,24.554
587.4,24.5696
587.5,24.5853
587.6,24.601
587.7,24.6167
587.8,24.6325
587.9,24.6482
588,24.664
588.1,24.6798
588.2,24.6956
588.3,24.7115
588.4,24.7274
588.5,24.7432
588.6,24.7592
588.7,24.7751
588.8,24.7911
588.9,24.807
589,24.823
589.1,24.8391
589.2,24.8551
589.3,24.8712
589.4,24.8873
589.5,24.9034
589.6,24.9195
589.7,24.9357
589.8,24.9519
589.9,24.9681
590,24.9843
590.1,25.0005
590.2,25.0168
590.3,25.0331
590.4,25.0494
590.5,25.0657
590.6,25.0821
590.7,25.0985
590.8,25.1149
590.9,25.1313
591,25.1477
591.1,25.1642
591.2,25.1807
591.3,25.1972
591.4,25.2137
591.5,25.2303
591.6,25.2468
591.7,25.2634
591.8,25.2801
591.9,25.2967
592,25.3134
592.1,25.33
592.2,25.3467
592.3,25.3635
592.4,25.3802
592.5,25.397
592.6,25.4138
592.7,25.4306
592.8,25.4474
592.9,25.4643
593,25.4812
593.1,25.4981
593.2,25.515
593.3,25.532
593.4,25.5489
593.5,25.5659
593.6,25.5829
593.7,25.6
593.8,25.617
593.9,25.6341
594,25.6512
594.1,25.6683
594.2,25.6855
594.3,25.7026
594.4,25.7198
594.5,25.737
594.6,25.7543
594.7,25.7715
594.8,25.7888
594.9,25.8061
595,25.8234
595.1,25.8408
595.2,25.8581
595.3,25.8755
595.4,25.8929
595.5,25.9104
595.6,25.9278
595.7,25.9453
595.8,25.9628
595.9,25.9803
596,25.9978
596.1,26.0154
596.2,26.033
596.3,26.0506
596.4,26.0682
596.5,26.0859
596.6,26.1035
596.7,26.1212
596.8,26.1389
596.9,26.1567
597,26.1744
597.1,26.1922
597.2,26.21
597.3,26.2278
597.4,26.2457
597.5,26.2636
597.6,26.2815
597.7,26.2994
597.8,26.3173
597.9,26.3353
598,26.3532
598.1,26.3712
598.2,26.3893
598.3,26.4073
598.4,26.4254
598.5,26.4434
598.6,26.4615
598.7,26.4795
598.8,26.4975
598.9,26.5155
599,26.5335
599.1,26.5514
599.2,26.5694
599.3,26.5873
599.4,26.6053
599.5,26.6232
599.6,26.6411
599.7,26.659
599.8,26.6768
599.9,26.6947
600,26.7125
600.1,26.7303
600.2,26.7481
600.3,26.7659
600.4,26.7837
600.5,26.8015
600.6,26.8192
600.7,26.837
600.8,26.8547
600.9,26.8724
601,26.8901
601.1,26.9078
601.2,26.9254
601.3,26.9431
601.4,26.9607
601.5,26.9784
601.6,26.996
601.7,27.0136
601.8,27.0311
601.9,27.0487
602,27.0662
602.1,27.0838
602.2,27.1013
602.3,27.1188
602.4,27.1363
602.5,27.1538
602.6,27.1712
602.7,27.1887
602.8,27.2061
602.9,27.2236
603,27.241
603.1,27.2584
603.2,27.2757
603.3,27.2931
603.4,27.3104
603.5,27.3278
603.6,27.3451
603.7,27.3624
603.8,27.3797
603.9,27.397
604,27.4142
604.1,27.4315
604.2,27.4487
604.3,27.4659
604.4,27.4831
604.5,27.5003
604.6,27.5175
604.7,27.5347
604.8,27.5518
604.9,27.5689
605,27.5861
605.1,27.6032
605.2,27.6203
605.3,27.6373
605.4,27.6544
605.5,27.6714
605.6,27.6885
605.7,27.7055
605.8,27.7225
605.9,27.7395
606,27.7565
606.1,27.7734
606.2,27.7904
606.3,27.8073
606.4,27.8242
606.5,27.8411
606.6,27.858
606.7,27.8749
606.8,27.8917
606.9,27.9086
607,27.9254
607.1,27.9422
607.2,27.959
607.3,27.9758
607.4,27.9926
607.5,28.0094
607.6,28.0261
607.7,28.0428
607.8,28.0595
607.9,28.0762
608,28.0929
608.1,28.1096
608.2,28.1263
608.3,28.1429
608.4,28.1595
608.5,28.1762
608.6,28.1928
608.7,28.2093
608.8,28.2259
608.9,28.2425
609,28.259
609.1,28.2755
609.2,28.2921
609.3,28.3086
609.4,28.325
609.5,28.3415
609.6,28.358
609.7,28.3744
609.8,28.3908
609.9,28.4073
610,28.4237
610.1,28.44
610.2,28.4564
610.3,28.4728
610.4,28.4891
610.5,28.5054
610.6,28.5217
610.7,28.538
610.8,28.5543
610.9,28.5706
611,28.5869
611.1,28.6031
611.2,28.6193
611.3,28.6355
611.4,28.6517
611.5,28.6679
611.6,28.6841
611.7,28.7002
611.8,28.7164
611.9,28.7325
612,28.7486
612.1,28.7647
612.2,28.7808
612.3,28.7969
612.4,28.8129
612.5,28.829
612.6,28.845
612.7,28.861
612.8,28.877
612.9,28.893
613,28.9089
613.1,28.9249
613.2,28.9408
613.3,28.9568
613.4,28.9727
613.5,28.9886
613.6,29.0044
613.7,29.0203
613.8,29.0362
613.9,29.052
614,29.0678
614.1,29.0836
614.2,29.0994
614.3,29.1152
614.4,29.131
614.5,29.1467
614.6,29.1625
614.7,29.1782
614.8,29.1939
614.9,29.2096
615,29.2253
615.1,29.2409
615.2,29.2566
615.3,29.2722
615.4,29.2878
615.5,29.3034
615.6,29.319
615.7,29.3346
615.8,29.3502
615.9,29.3657
616,29.3813
616.1,29.3968
616.2,29.4123
616.3,29.4279
616.4,29.4434
616.5,29.459
616.6,29.4746
616.7,29.4902
616.8,29.5058
616.9,29.5215
617,29.5371
617.1,29.5528
617.2,29.5685
617.3,29.5842
617.4,29.5999
617.5,29.6157
617.6,29.6314
617.7,29.6472
617.8,29.6629
617.9,29.6787
618,29.6946
618.1,29.7104
618.2,29.7262
618.3,29.7421
618.4,29.758
618.5,29.7739
618.6,29.7898
618.7,29.8057
618.8,29.8216
618.9,29.8376
619,29.8535
619.1,29.8695
619.2,29.8855
619.3,29.9015
619.4,29.9176
619.5,29.9336
619.6,29.9497
619.7,29.9658
619.8,29.9819
619.9,29.998
620,30.0141
620.1,30.0302
620.2,30.0464
620.3,30.0626
620.4,30.0787
620.5,30.095
620.6,30.1112
620.7,30.1274
620.8,30.1437
620.9,30.1599
621,30.1762
621.1,30.1925
621.2,30.2088
621.3,30.2251
621.4,30.2415
621.5,30.2578
621.6,30.2742
621.7,30.2906
621.8,30.307
621.9,30.3234
622,30.3399
622.1,30.3563
622.2,30.3728
622.3,30.3893
622.4,30.4058
622.5,30.4223
622.6,30.4388
622.7,30.4554
622.8,30.4719
622.9,30.4885
623,30.5051
623.1,30.5217
623.2,30.5384
623.3,30.555
623.4,30.5716
623.5,30.5883
623.6,30.605
623.7,30.6217
623.8,30.6384
623.9,30.6552
624,30.6719
624.1,30.6887
624.2,30.7055
624.3,30.7223
624.4,30.7391
624.5,30.7559
624.6,30.7727
624.7,30.7896
624.8,30.8065
624.9,30.8234
625,30.8403
625.1,30.8572
625.2,30.8741
625.3,30.8911
625.4,30.9081
625.5,30.9251
625.6,30.9421
625.7,30.9591
625.8,30.9761
625.9,30.9931
626,31.0102
626.1,31.0273
626.2,31.0444
626.3,31.0615
626.4,31.0786
626.5,31.0958
626.6,31.1129
626.7,31.1301
626.8,31.1473
626.9,31.1645
627,31.1817
627.1,31.1989
627.2,31.2162
627.3,31.2335
627.4,31.2507
627.5,31.268
627.6,31.2853
627.7,31.3027
627.8,31.32
627.9,31.3374
628,31.3548
628.1,31.3721
628.2,31.3896
628.3,31.407
628.4,31.4244
628.5,31.4419
628.6,31.4593
628.7,31.4768
628.8,31.4943
628.9,31.5118
629,31.5294
629.1,31.5469
629.2,31.5645
629.3,31.5821
629.4,31.5997
629.5,31.6173
629.6,31.6349
629.7,31.6525
629.8,31.6702
629.9,31.6879
630,31.7056
630.1,31.7233
630.2,31.741
630.3,31.7587
630.4,31.7765
630.5,31.7942
630.6,31.812
630.7,31.8298
630.8,31.8476
630.9,31.8655
631,31.8833
631.1,31.9012
631.2,31.919
631.3,31.9369
631.4,31.9548
631.5,31.9728
631.6,31.9907
631.7,32.0087
631.8,32.0266
631.9,32.0446
632,32.0626
632.1,32.0806
632.2,32.0987
632.3,32.1167
632.4,32.1348
632.5,32.1528
632.6,32.1709
632.7,32.1891
632.8,32.2072
632.9,32.2253
633,32.2435
633.1,32.2617
633.2,32.2798
633.3,32.298
633.4,32.3163
633.5,32.3345
633.6,32.3528
633.7,32.371
633.8,32.3893
633.9,32.4076
634,32.4259
634.1,32.4442
634.2,32.4626
634.3,32.4809
634.4,32.4993
634.5,32.5177
634.6,32.5361
634.7,32.5545
634.8,32.573
634.9,32.5914
635,32.6099
635.1,32.6284
635.2,32.6469
635.3,32.6654
635.4,32.6839
635.5,32.7025
635.6,32.7211
635.7,32.7396
635.8,32.7582
635.9,32.7768
636,32.7955
636.1,32.8141
636.2,32.8328
636.3,32.8514
636.4,32.8701
636.5,32.8888
636.6,32.9076
636.7,32.9263
636.8,32.945
636.9,32.9638
637,32.9826
637.1,33.0014
637.2,33.0202
637.3,33.039
637.4,33.0579
637.5,33.0767
637.6,33.0956
637.7,33.1145
637.8,33.1334
637.9,33.1523
638,33.1713
638.1,33.1902
638.2,33.2092
638.3,33.2282
638.4,33.2472
638.5,33.2662
638.6,33.2852
638.7,33.3043
638.8,33.3234
638.9,33.3424
639,33.3615
639.1,33.3806
639.2,33.3998
639.3,33.4189
639.4,33.4381
639.5,33.4572
639.6,33.4764
639.7,33.4956
639.8,33.5149
639.9,33.5341
640,33.5533
640.1,33.5725
640.2,33.5917
640.3,33.6109
640.4,33.6301
640.5,33.6492
640.6,33.6684
640.7,33.6875
640.8,33.7066
640.9,33.7257
641,33.7448
641.1,33.7638
641.2,33.7828
641.3,33.8019
641.4,33.8209
641.5,33.8399
641.6,33.8588
641.7,33.8778
641.8,33.8967
641.9,33.9157
642,33.9346
642.1,33.9535
642.2,33.9723
642.3,33.9912
642.4,34.0101
642.5,34.0289
642.6,34.0477
642.7,34.0665
642.8,34.0853
642.9,34.104
643,34.1228
643.1,34.1415
643.2,34.1602
643.3,34.1789
643.4,34.1976
643.5,34.2163
643.6,34.2349
643.7,34.2536
643.8,34.2722
643.9,34.2908
644,34.3094
644.1,34.328
644.2,34.3465
644.3,34.3651
644.4,34.3836
644.5,34.4021
644.6,34.4206
644.7,34.4391
644.8,34.4575
644.9,34.476
645,34.4944
645.1,34.5128
645.2,34.5312
645.3,34.5496
645.4,34.5679
645.5,34.5863
645.6,34.6046
645.7,34.6229
645.8,34.6412
645.9,34.6595
646,34.6778
646.1,34.696
646.2,34.7143
646.3,34.7325
646.4,34.7507
646.5,34.7689
646.6,34.7871
646.7,34.8052
646.8,34.8234
646.9,34.8415
647,34.8596
647.1,34.8777
647.2,34.8958
647.3,34.9138
647.4,34.9319
647.5,34.9499
647.6,34.9679
647.7,34.9859
647.8,35.0039
647.9,35.0218
648,35.0398
648.1,35.0577
648.2,35.0756
648.3,35.0935
648.4,35.1114
648.5,35.1293
648.6,35.1471
648.7,35.1649
648.8,35.1828
648.9,35.2006
649,35.2184
649.1,35.2361
649.2,35.2539
649.3,35.2716
649.4,35.2893
649.5,35.307
649.6,35.3247
649.7,35.3424
649.8,35.3601
649.9,35.3777
650,35.3953
650.1,35.4129
650.2,35.4305
650.3,35.4481
650.4,35.4657
650.5,35.4832
650.6,35.5007
650.7,35.5183
650.8,35.5357
650.9,35.5532
651,35.5707
651.1,35.5881
651.2,35.6056
651.3,35.623
651.4,35.6404
651.5,35.6578
651.6,35.6751
651.7,35.6925
651.8,35.7098
651.9,35.7272
652,35.7445
652.1,35.7617
652.2,35.779
652.3,35.7963
652.4,35.8135
652.5,35.8307
652.6,35.8479
652.7,35.8651
652.8,35.8823
652.9,35.8995
653,35.9166
653.1,35.9337
653.2,35.9509
653.3,35.9679
653.4,35.985
653.5,36.0021
653.6,36.0191
653.7,36.0362
653.8,36.0532
653.9,36.0702
654,36.0872
654.1,36.1041
654.2,36.1211
654.3,36.138
654.4,36.1549
654.5,36.1718
654.6,36.1887
654.7,36.2056
654.8,36.2224
654.9,36.2393
655,36.2561
655.1,36.2729
655.2,36.2897
655.3,36.3065
655.4,36.3232
655.5,36.34
655.6,36.3567
655.7,36.3734
655.8,36.3901
655.9,36.4068
656,36.4234
656.1,36.4401
656.2,36.4567
656.3,36.4733
656.4,36.4899
656.5,36.5065
656.6,36.5231
656.7,36.5396
656.8,36.5562
656.9,36.5727
657,36.5892
657.1,36.6057
657.2,36.6221
657.3,36.6386
657.4,36.655
657.5,36.6714
657.6,36.6879
657.7,36.7042
657.8,36.7206
657.9,36.737
658,36.7533
658.1,36.7696
658.2,36.7859
658.3,36.8022
658.4,36.8185
658.5,36.8348
658.6,36.851
658.7,36.8673
658.8,36.8836
658.9,36.8999
659,36.9162
659.1,36.9326
659.2,36.9489
659.3,36.9653
659.4,36.9816
659.5,36.998
659.6,37.0144
659.7,37.0308
659.8,37.0472
659.9,37.0637
660,37.0801
660.1,37.0966
660.2,37.1131
660.3,37.1295
660.4,37.146
660.5,37.1625
660.6,37.1791
660.7,37.1956
660.8,37.2121
660.9,37.2287
661,37.2453
661.1,37.2619
661.2,37.2785
661.3,37.2951
661.4,37.3117
661.5,37.3283
661.6,37.345
661.7,37.3617
661.8,37.3783
661.9,37.395
662,37.4117
662.1,37.4284
662.2,37.4452
662.3,37.4619
662.4,37.4787
662.5,37.4954
662.6,37.5122
662.7,37.529
662.8,37.5458
662.9,37.5626
663,37.5794
663.1,37.5963
663.2,37.6131
663.3,37.63
663.4,37.6469
663.5,37.6638
663.6,37.6807
663.7,37.6976
663.8,37.7145
663.9,37.7315
664,37.7484
664.1,37.7654
664.2,37.7824
664.3,37.7994
664.4,37.8164
664.5,37.8334
664.6,37.8505
664.7,37.8675
664.8,37.8846
664.9,37.9016
665,37.9187
665.1,37.9358
665.2,37.9529
665.3,37.97
665.4,37.9872
665.5,38.0043
665.6,38.0215
665.7,38.0387
665.8,38.0559
665.9,38.0731
666,38.0903
666.1,38.1075
666.2,38.1247
666.3,38.142
666.4,38.1592
666.5,38.1765
666.6,38.1938
666.7,38.2111
666.8,38.2284
666.9,38.2458
667,38.2631
667.1,38.2804
667.2,38.2978
667.3,38.3152
667.4,38.3326
667.5,38.35
667.6,38.3674
667.7,38.3848
667.8,38.4023
667.9,38.4197
668,38.4372
668.1,38.4547
668.2,38.4722
668.3,38.4897
668.4,38.5072
668.5,38.5247
668.6,38.5423
668.7,38.5598
668.8,38.5774
668.9,38.595
669,38.6126
669.1,38.6302
669.2,38.6478
669.3,38.6655
669.4,38.6831
669.5,38.7008
669.6,38.7184
669.7,38.7361
669.8,38.7538
669.9,38.7715
670,38.7893
670.1,38.807
670.2,38.8247
670.3,38.8425
670.4,38.8603
670.5,38.8781
670.6,38.8959
670.7,38.9137
670.8,38.9315
670.9,38.9493
671,38.9672
671.1,38.9851
671.2,39.0029
671.3,39.0208
671.4,39.0387
671.5,39.0566
671.6,39.0744
671.7,39.0922
671.8,39.11
671.9,39.1278
672,39.1456
672.1,39.1634
672.2,39.1811
672.3,39.1989
672.4,39.2166
672.5,39.2343
672.6,39.252
672.7,39.2697
672.8,39.2874
672.9,39.305
673,39.3226
673.1,39.3403
673.2,39.3579
673.3,39.3754
673.4,39.393
673.5,39.4106
673.6,39.4281
673.7,39.4456
673.8,39.4632
673.9,39.4806
674,39.4981
674.1,39.5156
674.2,39.533
674.3,39.5505
674.4,39.5679
674.5,39.5853
674.6,39.6027
674.7,39.6201
674.8,39.6374
674.9,39.6548
675,39.6721
675.1,39.6894
675.2,39.7067
675.3,39.724
675.4,39.7413
675.5,39.7585
675.6,39.7758
675.7,39.793
675.8,39.8102
675.9,39.8274
676,39.8446
676.1,39.8618
676.2,39.8789
676.3,39.896
676.4,39.9132
676.5,39.9303
676.6,39.9474
676.7,39.9644
676.8,39.9815
676.9,39.9985
677,40.0156
677.1,40.0326
677.2,40.0496
677.3,40.0666
677.4,40.0835
677.5,40.1005
677.6,40.1174
677.7,40.1343
677.8,40.1512
677.9,40.1681
678,40.185
678.1,40.2019
678.2,40.2187
678.3,40.2356
678.4,40.2524
678.5,40.2692
678.6,40.286
678.7,40.3027
678.8,40.3195
678.9,40.3362
679,40.353
679.1,40.3697
679.2,40.3864
679.3,40.4031
679.4,40.4197
679.5,40.4364
679.6,40.453
679.7,40.4696
679.8,40.4862
679.9,40.5028
680,40.5194
680.1,40.536
680.2,40.5525
680.3,40.569
680.4,40.5855
680.5,40.602
680.6,40.6185
680.7,40.635
680.8,40.6515
680.9,40.6679
681,40.6843
681.1,40.7007
681.2,40.7171
681.3,40.7335
681.4,40.7499
681.5,40.7662
681.6,40.7826
681.7,40.7989
681.8,40.8152
681.9,40.8315
682,40.8477
682.1,40.864
682.2,40.8802
682.3,40.8965
682.4,40.9127
682.5,40.9289
682.6,40.9451
682.7,40.9612
682.8,40.9774
682.9,40.9935
683,41.0096
683.1,41.0257
683.2,41.0418
683.3,41.0579
683.4,41.074
683.5,41.09
683.6,41.1061
683.7,41.1221
683.8,41.1381
683.9,41.1541
684,41.17
684.1,41.186
684.2,41.2019
684.3,41.2179
684.4,41.2338
684.5,41.2497
684.6,41.2655
684.7,41.2814
684.8,41.2973
684.9,41.3131
685,41.3289
685.1,41.3447
685.2,41.3605
685.3,41.3763
685.4,41.392
685.5,41.4078
685.6,41.4235
685.7,41.4392
685.8,41.4549
685.9,41.4706
686,41.4863
686.1,41.5019
686.2,41.5176
686.3,41.5332
686.4,41.5488
686.5,41.5644
686.6,41.58
686.7,41.5956
686.8,41.6111
686.9,41.6266
687,41.6422
687.1,41.6577
687.2,41.6731
687.3,41.6886
687.4,41.7041
687.5,41.7195
687.6,41.7349
687.7,41.7504
687.8,41.7658
687.9,41.7811
688,41.7965
688.1,41.8119
688.2,41.8272
688.3,41.8425
688.4,41.8578
688.5,41.8731
688.6,41.8884
688.7,41.9037
688.8,41.9189
688.9,41.9342
689,41.9494
689.1,41.9647
689.2,41.9799
689.3,41.9951
689.4,42.0104
689.5,42.0256
689.6,42.0408
689.7,42.056
689.8,42.0713
689.9,42.0865
690,42.1017
690.1,42.1169
690.2,42.1321
690.3,42.1473
690.4,42.1625
690.5,42.1777
690.6,42.1929
690.7,42.208
690.8,42.2232
690.9,42.2384
691,42.2536
691.1,42.2687
691.2,42.2839
691.3,42.2991
691.4,42.3142
691.5,42.3294
691.6,42.3445
691.7,42.3597
691.8,42.3748
691.9,42.3899
692,42.4051
692.1,42.4202
692.2,42.4353
692.3,42.4504
692.4,42.4656
692.5,42.4807
692.6,42.4958
692.7,42.5109
692.8,42.526
692.9,42.5411
693,42.5562
693.1,42.5713
693.2,42.5864
693.3,42.6015
693.4,42.6165
693.5,42.6316
693.6,42.6467
693.7,42.6618
693.8,42.6768
693.9,42.6919
694,42.7069
694.1,42.722
694.2,42.737
694.3,42.7521
694.4,42.7671
694.5,42.7822
694.6,42.7972
694.7,42.8122
694.8,42.8273
694.9,42.8423
695,42.8573
695.1,42.8723
695.2,42.8873
695.3,42.9023
695.4,42.9174
695.5,42.9324
695.6,42.9473
695.7,42.9623
695.8,42.9773
695.9,42.9923
696,43.0073
696.1,43.0223
696.2,43.0372
696.3,43.0522
696.4,43.0672
696.5,43.0821
696.6,43.0971
696.7,43.1121
696.8,43.127
696.9,43.142
697,43.1569
697.1,43.1718
697.2,43.1868
697.3,43.2017
697.4,43.2166
697.5,43.2316
697.6,43.2465
697.7,43.2614
697.8,43.2763
697.9,43.2912
698,43.3061
698.1,43.321
698.2,43.3359
698.3,43.3508
698.4,43.3657
698.5,43.3806
698.6,43.3955
698.7,43.4104
698.8,43.4252
698.9,43.4401
699,43.455
699.1,43.4698
699.2,43.4847
699.3,43.4996
699.4,43.5144
699.5,43.5293
699.6,43.5441
699.7,43.5589
699.8,43.5738
699.9,43.5886
700,43.6035
700.1,43.6183
700.2,43.6331
700.3,43.6479
700.4,43.6627
700.5,43.6775
700.6,43.6923
700.7,43.7072
700.8,43.722
700.9,43.7367
701,43.7515
701.1,43.7663
701.2,43.7811
701.3,43.7959
701.4,43.8107
701.5,43.8254
701.6,43.8402
701.7,43.855
701.8,43.8697
701.9,43.8845
702,43.8992
702.1,43.914
702.2,43.9287
702.3,43.9435
702.4,43.9582
702.5,43.973
702.6,43.9877
702.7,44.0024
702.8,44.0171
702.9,44.0319
703,44.0466
703.1,44.0613
703.2,44.076
703.3,44.0907
703.4,44.1054
703.5,44.1201
703.6,44.1348
703.7,44.1495
703.8,44.1642
703.9,44.1788
704,44.1935
704.1,44.2082
704.2,44.2229
704.3,44.2375
704.4,44.2522
704.5,44.2669
704.6,44.2815
704.7,44.2962
704.8,44.3108
704.9,44.3255
705,44.3401
705.1,44.3547
705.2,44.3694
705.3,44.384
705.4,44.3986
705.5,44.4132
705.6,44.4279
705.7,44.4425
705.8,44.4571
705.9,44.4717
706,44.4863
706.1,44.5009
706.2,44.5155
706.3,44.5301
706.4,44.5447
706.5,44.5592
706.6,44.5738
706.7,44.5884
706.8,44.603
706.9,44.6175
707,44.6321
707.1,44.6467
707.2,44.6612
707.3,44.6758
707.4,44.6904
707.5,44.7049
707.6,44.7195
707.7,44.734
707.8,44.7486
707.9,44.7631
708,44.7776
708.1,44.7922
708.2,44.8067
708.3,44.8212
708.4,44.8358
708.5,44.8503
708.6,44.8648
708.7,44.8793
708.8,44.8939
708.9,44.9084
709,44.9229
709.1,44.9374
709.2,44.9519
709.3,44.9664
709.4,44.9809
709.5,44.9954
709.6,45.0099
709.7,45.0244
709.8,45.0389
709.9,45.0534
710,45.0678
710.1,45.0823
710.2,45.0968
710.3,45.1113
710.4,45.1257
710.5,45.1402
710.6,45.1547
710.7,45.1691
710.8,45.1836
710.9,45.198
711,45.2125
711.1,45.2269
711.2,45.2414
711.3,45.2558
711.4,45.2703
711.5,45.2847
711.6,45.2992
711.7,45.3136
711.8,45.328
711.9,45.3424
712,45.3569
712.1,45.3713
712.2,45.3857
712.3,45.4001
712.4,45.4145
712.5,45.4289
712.6,45.4433
712.7,45.4578
712.8,45.4722
712.9,45.4865
713,45.5009
713.1,45.5153
713.2,45.5297
713.3,45.5441
713.4,45.5585
713.5,45.5729
713.6,45.5873
713.7,45.6016
713.8,45.616
713.9,45.6304
714,45.6447
714.1,45.6591
714.2,45.6735
714.3,45.6878
714.4,45.7022
714.5,45.7165
714.6,45.7309
714.7,45.7452
714.8,45.7596
714.9,45.7739
715,45.7882
715.1,45.8026
715.2,45.8169
715.3,45.8312
715.4,45.8456
715.5,45.8599
715.6,45.8742
715.7,45.8885
715.8,45.9028
715.9,45.9171
716,45.9314
716.1,45.9457
716.2,45.96
716.3,45.9743
716.4,45.9886
716.5,46.0029
716.6,46.0172
716.7,46.0315
716.8,46.0458
716.9,46.0601
717,46.0744
717.1,46.0886
717.2,46.1029
717.3,46.1172
717.4,46.1314
717.5,46.1457
717.6,46.16
717.7,46.1742
717.8,46.1885
717.9,46.2027
718,46.217
718.1,46.2312
718.2,46.2455
718.3,46.2597
718.4,46.274
718.5,46.2882
718.6,46.3024
718.7,46.3167
718.8,46.3309
718.9,46.3451
719,46.3593
719.1,46.3735
719.2,46.3878
719.3,46.402
719.4,46.4162
719.5,46.4304
719.6,46.4446
719.7,46.4588
719.8,46.473
719.9,46.4872
720,46.5013
720.1,46.5155
720.2,46.5296
720.3,46.5437
720.4,46.5577
720.5,46.5718
720.6,46.5858
720.7,46.5998
720.8,46.6138
720.9,46.6278
721,46.6418
721.1,46.6557
721.2,46.6696
721.3,46.6835
721.4,46.6974
721.5,46.7112
721.6,46.725
721.7,46.7389
721.8,46.7526
721.9,46.7664
722,46.7802
722.1,46.7939
722.2,46.8076
722.3,46.8213
722.4,46.8349
722.5,46.8486
722.6,46.8622
722.7,46.8758
722.8,46.8894
722.9,46.903
723,46.9165
723.1,46.93
723.2,46.9435
723.3,46.957
723.4,46.9705
723.5,46.9839
723.6,46.9973
723.7,47.0107
723.8,47.0241
723.9,47.0375
724,47.0508
724.1,47.0641
724.2,47.0774
724.3,47.0907
724.4,47.104
724.5,47.1172
724.6,47.1304
724.7,47.1436
724.8,47.1568
724.9,47.17
725,47.1831
725.1,47.1962
725.2,47.2093
725.3,47.2224
725.4,47.2354
725.5,47.2485
725.6,47.2615
725.7,47.2745
725.8,47.2874
725.9,47.3004
726,47.3133
726.1,47.3262
726.2,47.3391
726.3,47.352
726.4,47.3648
726.5,47.3777
726.6,47.3905
726.7,47.4033
726.8,47.416
726.9,47.4288
727,47.4415
727.1,47.4542
727.2,47.4669
727.3,47.4796
727.4,47.4922
727.5,47.5048
727.6,47.5174
727.7,47.53
727.8,47.5426
727.9,47.5551
728,47.5676
728.1,47.5802
728.2,47.5926
728.3,47.6051
728.4,47.6175
728.5,47.63
728.6,47.6424
728.7,47.6547
728.8,47.6671
728.9,47.6794
729,47.6917
729.1,47.704
729.2,47.7163
729.3,47.7286
729.4,47.7408
729.5,47.753
729.6,47.7652
729.7,47.7774
729.8,47.7896
729.9,47.8017
730,47.8138
730.1,47.8259
730.2,47.838
730.3,47.85
730.4,47.8621
730.5,47.8741
730.6,47.8861
730.7,47.898
730.8,47.91
730.9,47.9219
731,47.9338
731.1,47.9457
731.2,47.9576
731.3,47.9694
731.4,47.9812
731.5,47.9931
731.6,48.0048
731.7,48.0166
731.8,48.0284
731.9,48.0401
732,48.0518
732.1,48.0635
732.2,48.0751
732.3,48.0868
732.4,48.0984
732.5,48.11
732.6,48.1216
732.7,48.1331
732.8,48.1447
732.9,48.1562
733,48.1677
733.1,48.1792
733.2,48.1907
733.3,48.2021
733.4,48.2136
733.5,48.2251
733.6,48.2365
733.7,48.248
733.8,48.2595
733.9,48.271
734,48.2824
734.1,48.2939
734.2,48.3054
734.3,48.3169
734.4,48.3283
734.5,48.3398
734.6,48.3513
734.7,48.3628
734.8,48.3742
734.9,48.3857
735,48.3972
735.1,48.4087
735.2,48.4202
735.3,48.4316
735.4,48.4431
735.5,48.4546
735.6,48.4661
735.7,48.4776
735.8,48.4891
735.9,48.5005
736,48.512
736.1,48.5235
736.2,48.535
736.3,48.5465
736.4,48.558
736.5,48.5695
736.6,48.5809
736.7,48.5924
736.8,48.6039
736.9,48.6154
737,48.6269
737.1,48.6384
737.2,48.6499
737.3,48.6614
737.4,48.6729
737.5,48.6844
737.6,48.6959
737.7,48.7073
737.8,48.7188
737.9,48.7303
738,48.7418
738.1,48.7533
738.2,48.7648
738.3,48.7763
738.4,48.7878
738.5,48.7993
738.6,48.8108
738.7,48.8223
738.8,48.8338
738.9,48.8453
739,48.8568
739.1,48.8683
739.2,48.8798
739.3,48.8913
739.4,48.9028
739.5,48.9143
739.6,48.9258
739.7,48.9374
739.8,48.9489
739.9,48.9604
740,48.9719
740.1,48.9834
740.2,48.9949
740.3,49.0064
740.4,49.0179
740.5,49.0294
740.6,49.0409
740.7,49.0524
740.8,49.064
740.9,49.0755
741,49.087
741.1,49.0985
741.2,49.11
741.3,49.1215
741.4,49.133
741.5,49.1446
741.6,49.1561
741.7,49.1676
741.8,49.1791
741.9,49.1906
742,49.2021
742.1,49.2137
742.2,49.2252
742.3,49.2367
742.4,49.2482
742.5,49.2597
742.6,49.2713
742.7,49.2828
742.8,49.2943
742.9,49.3058
743,49.3174
743.1,49.3289
743.2,49.3404
743.3,49.3519
743.4,49.3635
743.5,49.375
743.6,49.3865
743.7,49.398
743.8,49.4096
743.9,49.4211
744,49.4326
744.1,49.4442
744.2,49.4557
744.3,49.4672
744.4,49.4788
744.5,49.4903
744.6,49.5018
744.7,49.5134
744.8,49.5249
744.9,49.5364
745,49.548
745.1,49.5595
745.2,49.571
745.3,49.5826
745.4,49.5941
745.5,49.6057
745.6,49.6172
745.7,49.6287
745.8,49.6403
745.9,49.6518
746,49.6634
746.1,49.6749
746.2,49.6864
746.3,49.698
746.4,49.7095
746.5,49.7211
746.6,49.7326
746.7,49.7442
746.8,49.7557
746.9,49.7673
747,49.7788
747.1,49.7904
747.2,49.8019
747.3,49.8135
747.4,49.825
747.5,49.8366
747.6,49.8481
747.7,49.8597
747.8,49.8712
747.9,49.8828
748,49.8943
748.1,49.9059
748.2,49.9174
748.3,49.929
748.4,49.9405
748.5,49.952
748.6,49.9634
748.7,49.9749
748.8,49.9863
748.9,49.9977
749,50.0091
749.1,50.0204
749.2,50.0318
749.3,50.0431
749.4,50.0543
749.5,50.0656
749.6,50.0768
749.7,50.088
749.8,50.0992
749.9,50.1103
750,50.1215
750.1,50.1326
750.2,50.1437
750.3,50.1547
750.4,50.1657
750.5,50.1768
750.6,50.1877
750.7,50.1987
750.8,50.2096
750.9,50.2205
751,50.2314
751.1,50.2423
751.2,50.2531
751.3,50.2639
751.4,50.2747
751.5,50.2855
751.6,50.2962
751.7,50.3069
751.8,50.3176
751.9,50.3283
752,50.3389
752.1,50.3495
752.2,50.3601
752.3,50.3707
752.4,50.3812
752.5,50.3918
752.6,50.4023
752.7,50.4127
752.8,50.4232
752.9,50.4336
753,50.444
753.1,50.4544
753.2,50.4647
753.3,50.475
753.4,50.4853
753.5,50.4956
753.6,50.5059
753.7,50.5161
753.8,50.5263
753.9,50.5365
754,50.5466
754.1,50.5567
754.2,50.5668
754.3,50.5769
754.4,50.587
754.5,50.597
754.6,50.607
754.7,50.617
754.8,50.6269
754.9,50.6369
755,50.6468
755.1,50.6567
755.2,50.6665
755.3,50.6764
755.4,50.6862
755.5,50.696
755.6,50.7057
755.7,50.7155
755.8,50.7252
755.9,50.7349
756,50.7445
756.1,50.7542
756.2,50.7638
756.3,50.7734
756.4,50.7829
756.5,50.7925
756.6,50.802
756.7,50.8115
756.8,50.821
756.9,50.8304
757,50.8398
757.1,50.8492
757.2,50.8586
757.3,50.8679
757.4,50.8772
757.5,50.8865
757.6,50.8958
757.7,50.9051
757.8,50.9143
757.9,50.9235
758,50.9327
758.1,50.9418
758.2,50.9509
758.3,50.96
758.4,50.9691
758.5,50.9782
758.6,50.9872
758.7,50.9962
758.8,51.0052
758.9,51.0141
759,51.0231
759.1,51.032
759.2,51.0409
759.3,51.0497
759.4,51.0586
759.5,51.0674
759.6,51.0761
759.7,51.0849
759.8,51.0936
759.9,51.1024
760,51.111
760.1,51.1197
760.2,51.1283
760.3,51.1369
760.4,51.1455
760.5,51.1541
760.6,51.1626
760.7,51.1712
760.8,51.1796
760.9,51.1881
761,51.1966
761.1,51.205
761.2,51.2134
761.3,51.2217
761.4,51.2301
761.5,51.2384
761.6,51.2467
761.7,51.255
761.8,51.2632
761.9,51.2714
762,51.2796
762.1,51.2878
762.2,51.296
762.3,51.3041
762.4,51.3122
762.5,51.3203
762.6,51.3283
762.7,51.3363
762.8,51.3443
762.9,51.3523
763,51.3603
763.1,51.3682
763.2,51.3761
763.3,51.384
763.4,51.3918
763.5,51.3997
763.6,51.4075
763.7,51.4153
763.8,51.423
763.9,51.4308
764,51.4386
764.1,51.4463
764.2,51.454
764.3,51.4617
764.4,51.4694
764.5,51.4771
764.6,51.4848
764.7,51.4924
764.8,51.5001
764.9,51.5077
765,51.5153
765.1,51.523
765.2,51.5305
765.3,51.5381
765.4,51.5457
765.5,51.5533
765.6,51.5608
765.7,51.5683
765.8,51.5758
765.9,51.5834
766,51.5908
766.1,51.5983
766.2,51.6058
766.3,51.6132
766.4,51.6207
766.5,51.6281
766.6,51.6355
766.7,51.6429
766.8,51.6503
766.9,51.6577
767,51.665
767.1,51.6724
767.2,51.6797
767.3,51.6871
767.4,51.6944
767.5,51.7017
767.6,51.709
767.7,51.7162
767.8,51.7235
767.9,51.7307
768,51.738
768.1,51.7452
768.2,51.7524
768.3,51.7596
768.4,51.7668
768.5,51.7739
768.6,51.7811
768.7,51.7882
768.8,51.7954
768.9,51.8025
769,51.8096
769.1,51.8167
769.2,51.8238
769.3,51.8308
769.4,51.8379
769.5,51.8449
769.6,51.8519
769.7,51.859
769.8,51.866
769.9,51.8729
770,51.8799
770.1,51.8869
770.2,51.8938
770.3,51.9008
770.4,51.9077
770.5,51.9146
770.6,51.9215
770.7,51.9284
770.8,51.9352
770.9,51.9421
771,51.949
771.1,51.9558
771.2,51.9626
771.3,51.9694
771.4,51.9762
771.5,51.983
771.6,51.9898
771.7,51.9965
771.8,52.0033
771.9,52.01
772,52.0167
772.1,52.0234
772.2,52.0301
772.3,52.0368
772.4,52.0434
772.5,52.0501
772.6,52.0567
772.7,52.0634
772.8,52.07
772.9,52.0766
773,52.0832
773.1,52.0897
773.2,52.0963
773.3,52.1028
773.4,52.1094
773.5,52.1159
773.6,52.1224
773.7,52.1289
773.8,52.1354
773.9,52.1419
774,52.1483
774.1,52.1548
774.2,52.1612
774.3,52.1676
774.4,52.174
774.5,52.1804
774.6,52.1868
774.7,52.1932
774.8,52.1995
774.9,52.2059
775,52.2122
775.1,52.2185
775.2,52.2248
775.3,52.2311
775.4,52.2374
775.5,52.2437
775.6,52.2499
775.7,52.2561
775.8,52.2624
775.9,52.2686
776,52.2748
776.1,52.281
776.2,52.2872
776.3,52.2933
776.4,52.2995
776.5,52.3056
776.6,52.3117
776.7,52.3178
776.8,52.3239
776.9,52.33
777,52.3361
777.1,52.3421
777.2,52.3482
777.3,52.3542
777.4,52.3602
777.5,52.3662
777.6,52.3722
777.7,52.3782
777.8,52.3842
777.9,52.3901
778,52.3961
778.1,52.402
778.2,52.4079
778.3,52.4138
778.4,52.4197
778.5,52.4256
778.6,52.4315
778.7,52.4373
778.8,52.4432
778.9,52.449
779,52.4548
779.1,52.4605
779.2,52.4663
779.3,52.472
779.4,52.4778
779.5,52.4835
779.6,52.4891
779.7,52.4948
779.8,52.5004
779.9,52.5061
780,52.5117
780.1,52.5172
780.2,52.5228
780.3,52.5284
780.4,52.5339
780.5,52.5394
780.6,52.5449
780.7,52.5503
780.8,52.5558
780.9,52.5612
781,52.5666
781.1,52.572
781.2,52.5774
781.3,52.5827
781.4,52.588
781.5,52.5933
781.6,52.5986
781.7,52.6039
781.8,52.6092
781.9,52.6144
782,52.6196
782.1,52.6248
782.2,52.63
782.3,52.6351
782.4,52.6403
782.5,52.6454
782.6,52.6505
782.7,52.6555
782.8,52.6606
782.9,52.6656
783,52.6706
783.1,52.6756
783.2,52.6806
783.3,52.6856
783.4,52.6905
783.5,52.6954
783.6,52.7003
783.7,52.7052
783.8,52.7101
783.9,52.7149
784,52.7197
784.1,52.7245
784.2,52.7293
784.3,52.7341
784.4,52.7388
784.5,52.7436
784.6,52.7483
784.7,52.7529
784.8,52.7576
784.9,52.7623
785,52.7669
785.1,52.7715
785.2,52.7761
785.3,52.7806
785.4,52.7852
785.5,52.7897
785.6,52.7942
785.7,52.7987
785.8,52.8032
785.9,52.8076
786,52.8121
786.1,52.8165
786.2,52.8209
786.3,52.8253
786.4,52.8296
786.5,52.8339
786.6,52.8383
786.7,52.8426
786.8,52.8468
786.9,52.8511
787,52.8553
787.1,52.8595
787.2,52.8637
787.3,52.8679
787.4,52.8721
787.5,52.8762
787.6,52.8803
787.7,52.8844
787.8,52.8885
787.9,52.8926
788,52.8966
788.1,52.9006
788.2,52.9046
788.3,52.9086
788.4,52.9126
788.5,52.9165
788.6,52.9205
788.7,52.9244
788.8,52.9282
788.9,52.9321
789,52.936
789.1,52.9398
789.2,52.9436
789.3,52.9474
789.4,52.9511
789.5,52.9549
789.6,52.9586
789.7,52.9623
789.8,52.966
789.9,52.9697
790,52.9733
790.1,52.977
790.2,52.9806
790.3,52.9842
790.4,52.9878
790.5,52.9913
790.6,52.9948
790.7,52.9984
790.8,53.0019
790.9,53.0053
791,53.0088
791.1,53.0122
791.2,53.0156
791.3,53.019
791.4,53.0224
791.5,53.0258
791.6,53.0291
791.7,53.0324
791.8,53.0357
791.9,53.039
792,53.0423
792.1,53.0455
792.2,53.0487
792.3,53.052
792.4,53.0551
792.5,53.0583
792.6,53.0614
792.7,53.0646
792.8,53.0677
792.9,53.0708
793,53.0738
793.1,53.0769
793.2,53.0799
793.3,53.0829
793.4,53.0859
793.5,53.0889
793.6,53.0918
793.7,53.0947
793.8,53.0977
793.9,53.1005
794,53.1034
794.1,53.1063
794.2,53.1091
794.3,53.1119
794.4,53.1147
794.5,53.1175
794.6,53.1202
794.7,53.123
794.8,53.1257
794.9,53.1284
795,53.1311
795.1,53.1337
795.2,53.1364
795.3,53.139
795.4,53.1416
795.5,53.1441
795.6,53.1467
795.7,53.1492
795.8,53.1518
795.9,53.1543
796,53.1568
796.1,53.1592
796.2,53.1617
796.3,53.1641
796.4,53.1665
796.5,53.1689
796.6,53.1713
796.7,53.1736
796.8,53.1759
796.9,53.1783
797,53.1806
797.1,53.1829
797.2,53.1851
797.3,53.1874
797.4,53.1896
797.5,53.1918
797.6,53.194
797.7,53.1962
797.8,53.1984
797.9,53.2005
798,53.2027
798.1,53.2048
798.2,53.2069
798.3,53.209
798.4,53.211
798.5,53.2131
798.6,53.2151
798.7,53.2171
798.8,53.2191
798.9,53.2211
799,53.223
799.1,53.225
799.2,53.2269
799.3,53.2288
799.4,53.2307
799.5,53.2326
799.6,53.2344
799.7,53.2363
799.8,53.2381
799.9,53.2399
800,53.2417
800.1,53.2435
800.2,53.2452
800.3,53.2469
800.4,53.2487
800.5,53.2504
800.6,53.252
800.7,53.2537
800.8,53.2554
800.9,53.257
801,53.2586
801.1,53.2602
801.2,53.2618
801.3,53.2633
801.4,53.2649
801.5,53.2664
801.6,53.2679
801.7,53.2694
801.8,53.2709
801.9,53.2724
802,53.2738
802.1,53.2752
802.2,53.2766
802.3,53.278
802.4,53.2794
802.5,53.2807
802.6,53.2821
802.7,53.2834
802.8,53.2847
802.9,53.286
803,53.2873
803.1,53.2885
803.2,53.2897
803.3,53.291
803.4,53.2922
803.5,53.2933
803.6,53.2945
803.7,53.2956
803.8,53.2968
803.9,53.2979
804,53.299
804.1,53.3001
804.2,53.3011
804.3,53.3022
804.4,53.3032
804.5,53.3042
804.6,53.3052
804.7,53.3062
804.8,53.3071
804.9,53.3081
805,53.309
805.1,53.3099
805.2,53.3108
805.3,53.3117
805.4,53.3125
805.5,53.3134
805.6,53.3142
805.7,53.315
805.8,53.3158
805.9,53.3165
806,53.3173
806.1,53.318
806.2,53.3187
806.3,53.3194
806.4,53.3201
806.5,53.3208
806.6,53.3214
806.7,53.322
806.8,53.3227
806.9,53.3233
807,53.3238
807.1,53.3244
807.2,53.3249
807.3,53.3255
807.4,53.326
807.5,53.3265
807.6,53.3269
807.7,53.3274
807.8,53.3278
807.9,53.3283
808,53.3287
808.1,53.329
808.2,53.3294
808.3,53.3298
808.4,53.3301
808.5,53.3304
808.6,53.3307
808.7,53.331
808.8,53.3313
808.9,53.3315
809,53.3318
809.1,53.332
809.2,53.3322
809.3,53.3323
809.4,53.3325
809.5,53.3327
809.6,53.3328
809.7,53.3329
809.8,53.333
809.9,53.3331
810,53.3331
810.1,53.3332
810.2,53.3332
810.3,53.3332
810.4,53.3332
810.5,53.3332
810.6,53.3331
810.7,53.3331
810.8,53.333
810.9,53.3329
811,53.3328
811.1,53.3326
811.2,53.3325
811.3,53.3323
811.4,53.3321
811.5,53.332
811.6,53.3317
811.7,53.3315
811.8,53.3312
811.9,53.331
812,53.3307
812.1,53.3304
812.2,53.3301
812.3,53.3297
812.4,53.3294
812.5,53.329
812.6,53.3286
812.7,53.3282
812.8,53.3278
812.9,53.3273
813,53.3269
813.1,53.3264
813.2,53.3259
813.3,53.3254
813.4,53.3249
813.5,53.3243
813.6,53.3238
813.7,53.3232
813.8,53.3226
813.9,53.322
814,53.3213
814.1,53.3207
814.2,53.32
814.3,53.3194
814.4,53.3187
814.5,53.3179
814.6,53.3172
814.7,53.3164
814.8,53.3157
814.9,53.3149
815,53.3141
815.1,53.3133
815.2,53.3124
815.3,53.3116
815.4,53.3107
815.5,53.3098
815.6,53.3089
815.7,53.308
815.8,53.307
815.9,53.3061
816,53.3051
816.1,53.3041
816.2,53.3031
816.3,53.3021
816.4,53.301
816.5,53.3
816.6,53.2989
816.7,53.2978
816.8,53.2967
816.9,53.2955
817,53.2944
817.1,53.2932
817.2,53.292
817.3,53.2908
817.4,53.2896
817.5,53.2884
817.6,53.2871
817.7,53.2859
817.8,53.2846
817.9,53.2833
818,53.2819
818.1,53.2806
818.2,53.2792
818.3,53.2779
818.4,53.2765
818.5,53.2751
818.6,53.2736
818.7,53.2722
818.8,53.2707
818.9,53.2693
819,53.2678
819.1,53.2663
819.2,53.2647
819.3,53.2632
819.4,53.2616
819.5,53.26
819.6,53.2584
819.7,53.2568
819.8,53.2552
819.9,53.2535
820,53.2518
820.1,53.2501
820.2,53.2484
820.3,53.2466
820.4,53.2449
820.5,53.2431
820.6,53.2413
820.7,53.2395
820.8,53.2376
820.9,53.2357
821,53.2339
821.1,53.232
821.2,53.23
821.3,53.2281
821.4,53.2261
821.5,53.2241
821.6,53.2221
821.7,53.2201
821.8,53.218
821.9,53.216
822,53.2139
822.1,53.2118
822.2,53.2097
822.3,53.2075
822.4,53.2053
822.5,53.2032
822.6,53.2009
822.7,53.1987
822.8,53.1965
822.9,53.1942
823,53.1919
823.1,53.1896
823.2,53.1873
823.3,53.1849
823.4,53.1826
823.5,53.1802
823.6,53.1778
823.7,53.1753
823.8,53.1729
823.9,53.1704
824,53.1679
824.1,53.1654
824.2,53.1629
824.3,53.1603
824.4,53.1578
824.5,53.1552
824.6,53.1526
824.7,53.1499
824.8,53.1473
824.9,53.1446
825,53.1419
825.1,53.1392
825.2,53.1365
825.3,53.1337
825.4,53.1309
825.5,53.1282
825.6,53.1253
825.7,53.1225
825.8,53.1197
825.9,53.1168
826,53.1139
826.1,53.111
826.2,53.1081
826.3,53.1051
826.4,53.1021
826.5,53.0991
826.6,53.0961
826.7,53.0931
826.8,53.09
826.9,53.087
827,53.0839
827.1,53.0807
827.2,53.0776
827.3,53.0745
827.4,53.0713
827.5,53.0681
827.6,53.0649
827.7,53.0616
827.8,53.0584
827.9,53.0551
828,53.0518
828.1,53.0485
828.2,53.0452
828.3,53.0418
828.4,53.0384
828.5,53.035
828.6,53.0316
828.7,53.0282
828.8,53.0247
828.9,53.0213
829,53.0178
829.1,53.0142
829.2,53.0107
829.3,53.0071
829.4,53.0036
829.5,53
829.6,52.9964
829.7,52.9927
829.8,52.9891
829.9,52.9854
830,52.9817
830.1,52.978
830.2,52.9742
830.3,52.9705
830.4,52.9667
830.5,52.9629
830.6,52.9591
830.7,52.9552
830.8,52.9514
830.9,52.9475
831,52.9436
831.1,52.9397
831.2,52.9357
831.3,52.9318
831.4,52.9278
831.5,52.9238
831.6,52.9198
831.7,52.9157
831.8,52.9117
831.9,52.9076
832,52.9035
832.1,52.8994
832.2,52.8952
832.3,52.8911
832.4,52.8869
832.5,52.8827
832.6,52.8785
832.7,52.8742
832.8,52.87
832.9,52.8657
833,52.8614
833.1,52.857
833.2,52.8527
833.3,52.8483
833.4,52.844
833.5,52.8396
833.6,52.8351
833.7,52.8307
833.8,52.8262
833.9,52.8217
834,52.8172
834.1,52.8127
834.2,52.8082
834.3,52.8036
834.4,52.799
834.5,52.7944
834.6,52.7898
834.7,52.7852
834.8,52.7805
834.9,52.7758
835,52.7711
835.1,52.7664
835.2,52.7616
835.3,52.7569
835.4,52.7521
835.5,52.7473
835.6,52.7424
835.7,52.7376
835.8,52.7327
835.9,52.7278
836,52.7229
836.1,52.718
836.2,52.7131
836.3,52.7081
836.4,52.7031
836.5,52.6981
836.6,52.6931
836.7,52.688
836.8,52.683
836.9,52.6779
837,52.6728
837.1,52.6676
837.2,52.6625
837.3,52.6573
837.4,52.6521
837.5,52.6469
837.6,52.6417
837.7,52.6365
837.8,52.6312
837.9,52.6259
838,52.6206
838.1,52.6153
838.2,52.6099
838.3,52.6045
838.4,52.5991
838.5,52.5937
838.6,52.5883
838.7,52.5829
838.8,52.5774
838.9,52.5719
839,52.5664
839.1,52.5609
839.2,52.5553
839.3,52.5497
839.4,52.5441
839.5,52.5385
839.6,52.5329
839.7,52.5272
839.8,52.5216
839.9,52.5159
840,52.5102
840.1,52.5044
840.2,52.4987
840.3,52.4929
840.4,52.4871
840.5,52.4813
840.6,52.4755
840.7,52.4696
840.8,52.4638
840.9,52.4579
841,52.4519
841.1,52.446
841.2,52.4401
841.3,52.4341
841.4,52.4281
841.5,52.4221
841.6,52.416
841.7,52.41
841.8,52.4039
841.9,52.3978
842,52.3917
842.1,52.3856
842.2,52.3794
842.3,52.3732
842.4,52.367
842.5,52.3608
842.6,52.3546
842.7,52.3483
842.8,52.3421
842.9,52.3358
843,52.3294
843.1,52.323
843.2,52.3166
843.3,52.31
843.4,52.3035
843.5,52.2968
843.6,52.2901
843.7,52.2833
843.8,52.2765
843.9,52.2696
844,52.2627
844.1,52.2557
844.2,52.2486
844.3,52.2415
844.4,52.2343
844.5,52.227
844.6,52.2197
844.7,52.2124
844.8,52.2049
844.9,52.1974
845,52.1899
845.1,52.1823
845.2,52.1746
845.3,52.1669
845.4,52.1591
845.5,52.1512
845.6,52.1433
845.7,52.1353
845.8,52.1273
845.9,52.1192
846,52.1111
846.1,52.1028
846.2,52.0946
846.3,52.0862
846.4,52.0778
846.5,52.0694
846.6,52.0609
846.7,52.0523
846.8,52.0436
846.9,52.0349
847,52.0262
847.1,52.0174
847.2,52.0085
847.3,51.9995
847.4,51.9905
847.5,51.9815
847.6,51.9723
847.7,51.9632
847.8,51.9539
847.9,51.9446
848,51.9353
848.1,51.9258
848.2,51.9163
848.3,51.9068
848.4,51.8972
848.5,51.8875
848.6,51.8778
848.7,51.868
848.8,51.8582
848.9,51.8483
849,51.8383
849.1,51.8283
849.2,51.8182
849.3,51.808
849.4,51.7978
849.5,51.7875
849.6,51.7772
849.7,51.7668
849.8,51.7564
849.9,51.7458
850,51.7353
850.1,51.7246
850.2,51.7139
850.3,51.7032
850.4,51.6924
850.5,51.6815
850.6,51.6706
850.7,51.6596
850.8,51.6485
850.9,51.6374
851,51.6262
851.1,51.615
851.2,51.6037
851.3,51.5923
851.4,51.5809
851.5,51.5694
851.6,51.5579
851.7,51.5463
851.8,51.5346
851.9,51.5229
852,51.5111
852.1,51.4993
852.2,51.4874
852.3,51.4754
852.4,51.4634
852.5,51.4513
852.6,51.4392
852.7,51.427
852.8,51.4147
852.9,51.4024
853,51.39
853.1,51.3775
853.2,51.365
853.3,51.3525
853.4,51.3398
853.5,51.3271
853.6,51.3144
853.7,51.3016
853.8,51.2887
853.9,51.2758
854,51.2628
854.1,51.2497
854.2,51.2366
854.3,51.2234
854.4,51.2102
854.5,51.1969
854.6,51.1836
854.7,51.1702
854.8,51.1567
854.9,51.1431
855,51.1296
855.1,51.1159
855.2,51.1022
855.3,51.0884
855.4,51.0746
855.5,51.0607
855.6,51.0467
855.7,51.0327
855.8,51.0186
855.9,51.0045
856,50.9903
856.1,50.976
856.2,50.9617
856.3,50.9473
856.4,50.9329
856.5,50.9184
856.6,50.9038
856.7,50.8892
856.8,50.8745
856.9,50.8598
857,50.845
857.1,50.8301
857.2,50.8152
857.3,50.8002
857.4,50.7851
857.5,50.77
857.6,50.7549
857.7,50.7396
857.8,50.7243
857.9,50.709
858,50.6936
858.1,50.6781
858.2,50.6626
858.3,50.647
858.4,50.6313
858.5,50.6156
858.6,50.5999
858.7,50.584
858.8,50.5681
858.9,50.5522
859,50.5362
859.1,50.5201
859.2,50.504
859.3,50.4878
859.4,50.4717
859.5,50.4555
859.6,50.4393
859.7,50.4232
859.8,50.407
859.9,50.3908
860,50.3745
860.1,50.3583
860.2,50.3421
860.3,50.3258
860.4,50.3096
860.5,50.2933
860.6,50.277
860.7,50.2607
860.8,50.2444
860.9,50.2281
861,50.2118
861.1,50.1955
861.2,50.1792
861.3,50.1628
861.4,50.1464
861.5,50.1301
861.6,50.1137
861.7,50.0973
861.8,50.0809
861.9,50.0645
862,50.0481
862.1,50.0316
862.2,50.0152
862.3,49.9987
862.4,49.9823
862.5,49.9658
862.6,49.9493
862.7,49.9328
862.8,49.9163
862.9,49.8998
863,49.8833
863.1,49.8668
863.2,49.8502
863.3,49.8337
863.4,49.8171
863.5,49.8005
863.6,49.7839
863.7,49.7673
863.8,49.7507
863.9,49.7341
864,49.7175
864.1,49.7008
864.2,49.6842
864.3,49.6675
864.4,49.6509
864.5,49.6342
864.6,49.6175
864.7,49.6008
864.8,49.5841
864.9,49.5674
865,49.5506
865.1,49.5339
865.2,49.5171
865.3,49.5004
865.4,49.4836
865.5,49.4668
865.6,49.45
865.7,49.4332
865.8,49.4164
865.9,49.3996
866,49.3828
866.1,49.3659
866.2,49.3491
866.3,49.3322
866.4,49.3153
866.5,49.2984
866.6,49.2815
866.7,49.2646
866.8,49.2477
866.9,49.2308
867,49.2139
867.1,49.1969
867.2,49.18
867.3,49.163
867.4,49.146
867.5,49.129
867.6,49.112
867.7,49.095
867.8,49.078
867.9,49.061
868,49.0439
868.1,49.0269
868.2,49.0098
868.3,48.9927
868.4,48.9757
868.5,48.9586
868.6,48.9415
868.7,48.9244
868.8,48.9072
868.9,48.8901
869,48.873
869.1,48.8558
869.2,48.8386
869.3,48.8215
869.4,48.8043
869.5,48.7871
869.6,48.7699
869.7,48.7527
869.8,48.7354
869.9,48.7182
870,48.701
870.1,48.6837
870.2,48.6664
870.3,48.6492
870.4,48.6319
870.5,48.6146
870.6,48.5973
870.7,48.58
870.8,48.5626
870.9,48.5453
871,48.5279
871.1,48.5106
871.2,48.4932
871.3,48.4758
871.4,48.4584
871.5,48.441
871.6,48.4236
871.7,48.4061
871.8,48.3886
871.9,48.371
872,48.3534
872.1,48.3358
872.2,48.3182
872.3,48.3005
872.4,48.2828
872.5,48.2651
872.6,48.2473
872.7,48.2295
872.8,48.2117
872.9,48.1939
873,48.176
873.1,48.1581
873.2,48.1401
873.3,48.1221
873.4,48.1041
873.5,48.0861
873.6,48.068
873.7,48.0499
873.8,48.0318
873.9,48.0136
874,47.9954
874.1,47.9772
874.2,47.9589
874.3,47.9407
874.4,47.9223
874.5,47.904
874.6,47.8856
874.7,47.8672
874.8,47.8488
874.9,47.8303
875,47.8118
875.1,47.7932
875.2,47.7747
875.3,47.7561
875.4,47.7375
875.5,47.7188
875.6,47.7001
875.7,47.6814
875.8,47.6626
875.9,47.6439
876,47.625
876.1,47.6062
876.2,47.5873
876.3,47.5684
876.4,47.5495
876.5,47.5305
876.6,47.5115
876.7,47.4925
876.8,47.4734
876.9,47.4543
877,47.4352
877.1,47.4161
877.2,47.3969
877.3,47.3777
877.4,47.3584
877.5,47.3391
877.6,47.3198
877.7,47.3005
877.8,47.2811
877.9,47.2617
878,47.2423
878.1,47.2228
878.2,47.2033
878.3,47.1838
878.4,47.1643
878.5,47.1447
878.6,47.125
878.7,47.1054
878.8,47.0857
878.9,47.066
879,47.0463
879.1,47.0265
879.2,47.0067
879.3,46.9869
879.4,46.967
879.5,46.9471
879.6,46.9272
879.7,46.9072
879.8,46.8872
879.9,46.8672
880,46.8472
880.1,46.8271
880.2,46.807
880.3,46.7868
880.4,46.7667
880.5,46.7465
880.6,46.7262
880.7,46.706
880.8,46.6857
880.9,46.6653
881,46.645
881.1,46.6246
881.2,46.6042
881.3,46.5837
881.4,46.5632
881.5,46.5427
881.6,46.5222
881.7,46.5016
881.8,46.481
881.9,46.4604
882,46.4397
882.1,46.419
882.2,46.3983
882.3,46.3775
882.4,46.3567
882.5,46.3359
882.6,46.315
882.7,46.2941
882.8,46.2732
882.9,46.2523
883,46.2313
883.1,46.2104
883.2,46.1894
883.3,46.1683
883.4,46.1473
883.5,46.1262
883.6,46.1051
883.7,46.084
883.8,46.0628
883.9,46.0417
884,46.0205
884.1,45.9992
884.2,45.978
884.3,45.9567
884.4,45.9354
884.5,45.9141
884.6,45.8928
884.7,45.8714
884.8,45.85
884.9,45.8286
885,45.8072
885.1,45.7857
885.2,45.7643
885.3,45.7428
885.4,45.7212
885.5,45.6997
885.6,45.6781
885.7,45.6565
885.8,45.6349
885.9,45.6132
886,45.5916
886.1,45.5699
886.2,45.5481
886.3,45.5264
886.4,45.5046
886.5,45.4828
886.6,45.461
886.7,45.4392
886.8,45.4173
886.9,45.3954
887,45.3735
887.1,45.3516
887.2,45.3296
887.3,45.3077
887.4,45.2856
887.5,45.2636
887.6,45.2416
887.7,45.2195
887.8,45.1974
887.9,45.1753
888,45.1531
888.1,45.1309
888.2,45.1087
888.3,45.0865
888.4,45.0643
888.5,45.042
888.6,45.0197
888.7,44.9974
888.8,44.9751
888.9,44.9527
889,44.9303
889.1,44.9079
889.2,44.8855
889.3,44.863
889.4,44.8405
889.5,44.818
889.6,44.7955
889.7,44.773
889.8,44.7504
889.9,44.7278
890,44.7052
890.1,44.6825
890.2,44.6598
890.3,44.6371
890.4,44.6144
890.5,44.5917
890.6,44.5689
890.7,44.5461
890.8,44.5233
890.9,44.5005
891,44.4776
891.1,44.4547
891.2,44.4318
891.3,44.4089
891.4,44.3859
891.5,44.3629
891.6,44.3399
891.7,44.3169
891.8,44.2938
891.9,44.2708
892,44.2477
892.1,44.2245
892.2,44.2014
892.3,44.1782
892.4,44.155
892.5,44.1318
892.6,44.1086
892.7,44.0853
892.8,44.062
892.9,44.0387
893,44.0153
893.1,43.992
893.2,43.9686
893.3,43.9452
893.4,43.9217
893.5,43.8983
893.6,43.8748
893.7,43.8513
893.8,43.8278
893.9,43.8042
894,43.7806
894.1,43.757
894.2,43.7334
894.3,43.7098
894.4,43.6861
894.5,43.6624
894.6,43.6387
894.7,43.6149
894.8,43.5912
894.9,43.5674
895,43.5436
895.1,43.5197
895.2,43.4959
895.3,43.472
895.4,43.4481
895.5,43.4241
895.6,43.4002
895.7,43.3762
895.8,43.3522
895.9,43.3282
896,43.3042
896.1,43.2801
896.2,43.2561
896.3,43.2321
896.4,43.208
896.5,43.184
896.6,43.16
896.7,43.1359
896.8,43.1118
896.9,43.0878
897,43.0637
897.1,43.0396
897.2,43.0156
897.3,42.9915
897.4,42.9674
897.5,42.9433
897.6,42.9192
897.7,42.8951
897.8,42.871
897.9,42.8469
898,42.8228
898.1,42.7986
898.2,42.7745
898.3,42.7504
898.4,42.7262
898.5,42.7021
898.6,42.6779
898.7,42.6538
898.8,42.6296
898.9,42.6055
899,42.5813
899.1,42.5571
899.2,42.5329
899.3,42.5087
899.4,42.4845
899.5,42.4603
899.6,42.4361
899.7,42.4119
899.8,42.3877
899.9,42.3635
900,42.3393
900.1,42.3151
900.2,42.2908
900.3,42.2666
900.4,42.2423
900.5,42.2181
900.6,42.1938
900.7,42.1696
900.8,42.1453
900.9,42.121
901,42.0968
901.1,42.0725
901.2,42.0482
901.3,42.0239
901.4,41.9996
901.5,41.9753
901.6,41.951
901.7,41.9267
901.8,41.9024
901.9,41.878
902,41.8537
902.1,41.8294
902.2,41.805
902.3,41.7807
902.4,41.7563
902.5,41.732
902.6,41.7076
902.7,41.6833
902.8,41.6589
902.9,41.6345
903,41.6101
903.1,41.5858
903.2,41.5614
903.3,41.537
903.4,41.5126
903.5,41.4882
903.6,41.4638
903.7,41.4393
903.8,41.4149
903.9,41.3905
904,41.3661
904.1,41.3416
904.2,41.3172
904.3,41.2927
904.4,41.2683
904.5,41.2438
904.6,41.2193
904.7,41.1949
904.8,41.1704
904.9,41.1459
905,41.1214
905.1,41.0969
905.2,41.0725
905.3,41.048
905.4,41.0234
905.5,40.9989
905.6,40.9744
905.7,40.9499
905.8,40.9254
905.9,40.9008
906,40.8763
906.1,40.8518
906.2,40.8272
906.3,40.8027
906.4,40.7781
906.5,40.7535
906.6,40.729
906.7,40.7044
906.8,40.6798
906.9,40.6552
907,40.6306
907.1,40.6061
907.2,40.5815
907.3,40.5568
907.4,40.5322
907.5,40.5076
907.6,40.483
907.7,40.4584
907.8,40.4337
907.9,40.4091
908,40.3845
908.1,40.3598
908.2,40.3352
908.3,40.3105
908.4,40.2858
908.5,40.2612
908.6,40.2365
908.7,40.2118
908.8,40.1871
908.9,40.1625
909,40.1378
909.1,40.1131
909.2,40.0884
909.3,40.0636
909.4,40.0389
909.5,40.0142
909.6,39.9895
909.7,39.9648
909.8,39.94
909.9,39.9153
910,39.8905
910.1,39.8658
910.2,39.841
910.3,39.8163
910.4,39.7915
910.5,39.7667
910.6,39.742
910.7,39.7172
910.8,39.6924
910.9,39.6676
911,39.6428
911.1,39.618
911.2,39.5932
911.3,39.5683
911.4,39.5435
911.5,39.5186
911.6,39.4938
911.7,39.4689
911.8,39.444
911.9,39.4191
912,39.3942
912.1,39.3693
912.2,39.3444
912.3,39.3195
912.4,39.2946
912.5,39.2696
912.6,39.2447
912.7,39.2197
912.8,39.1947
912.9,39.1697
913,39.1448
913.1,39.1198
913.2,39.0947
913.3,39.0697
913.4,39.0447
913.5,39.0197
913.6,38.9946
913.7,38.9696
913.8,38.9445
913.9,38.9194
914,38.8943
914.1,38.8692
914.2,38.8441
914.3,38.819
914.4,38.7939
914.5,38.7688
914.6,38.7436
914.7,38.7185
914.8,38.6933
914.9,38.6681
915,38.643
915.1,38.6178
915.2,38.5926
915.3,38.5674
915.4,38.5422
915.5,38.5169
915.6,38.4917
915.7,38.4665
915.8,38.4412
915.9,38.4159
916,38.3907
916.1,38.3654
916.2,38.3401
916.3,38.3148
916.4,38.2895
916.5,38.2642
916.6,38.2388
916.7,38.2135
916.8,38.1881
916.9,38.1628
917,38.1374
917.1,38.112
917.2,38.0867
917.3,38.0613
917.4,38.0359
917.5,38.0104
917.6,37.985
917.7,37.9596
917.8,37.9342
917.9,37.9087
918,37.8832
918.1,37.8578
918.2,37.8323
918.3,37.8068
918.4,37.7813
918.5,37.7558
918.6,37.7303
918.7,37.7048
918.8,37.6792
918.9,37.6537
919,37.6281
919.1,37.6026
919.2,37.577
919.3,37.5514
919.4,37.5258
919.5,37.5002
919.6,37.4746
919.7,37.449
919.8,37.4233
919.9,37.3977
920,37.3721
920.1,37.3464
920.2,37.3207
920.3,37.2951
920.4,37.2694
920.5,37.2437
920.6,37.218
920.7,37.1923
920.8,37.1665
920.9,37.1408
921,37.1151
921.1,37.0893
921.2,37.0635
921.3,37.0378
921.4,37.012
921.5,36.9862
921.6,36.9604
921.7,36.9346
921.8,36.9088
921.9,36.8829
922,36.8571
922.1,36.8313
922.2,36.8054
922.3,36.7795
922.4,36.7537
922.5,36.7278
922.6,36.7019
922.7,36.676
922.8,36.6501
922.9,36.6242
923,36.5982
923.1,36.5723
923.2,36.5463
923.3,36.5204
923.4,36.4944
923.5,36.4684
923.6,36.4425
923.7,36.4165
923.8,36.3904
923.9,36.3644
924,36.3384
924.1,36.3124
924.2,36.2863
924.3,36.2603
924.4,36.2342
924.5,36.2081
924.6,36.1821
924.7,36.156
924.8,36.1299
924.9,36.1038
925,36.0776
925.1,36.0515
925.2,36.0254
925.3,35.9992
925.4,35.9731
925.5,35.9469
925.6,35.9207
925.7,35.8946
925.8,35.8684
925.9,35.8422
926,35.8159
926.1,35.7897
926.2,35.7635
926.3,35.7373
926.4,35.711
926.5,35.6847
926.6,35.6584
926.7,35.6321
926.8,35.6057
926.9,35.5794
927,35.553
927.1,35.5266
927.2,35.5002
927.3,35.4737
927.4,35.4472
927.5,35.4208
927.6,35.3942
927.7,35.3677
927.8,35.3412
927.9,35.3146
928,35.288
928.1,35.2614
928.2,35.2348
928.3,35.2081
928.4,35.1815
928.5,35.1548
928.6,35.1281
928.7,35.1013
928.8,35.0746
928.9,35.0478
929,35.021
929.1,34.9942
929.2,34.9674
929.3,34.9405
929.4,34.9136
929.5,34.8867
929.6,34.8598
929.7,34.8329
929.8,34.8059
929.9,34.779
930,34.752
930.1,34.725
930.2,34.6979
930.3,34.6709
930.4,34.6438
930.5,34.6167
930.6,34.5896
930.7,34.5624
930.8,34.5353
930.9,34.5081
931,34.4809
931.1,34.4537
931.2,34.4264
931.3,34.3992
931.4,34.3719
931.5,34.3446
931.6,34.3173
931.7,34.2899
931.8,34.2626
931.9,34.2352
932,34.2078
932.1,34.1803
932.2,34.1529
932.3,34.1254
932.4,34.098
932.5,34.0705
932.6,34.0429
932.7,34.0154
932.8,33.9878
932.9,33.9602
933,33.9326
933.1,33.905
933.2,33.8773
933.3,33.8497
933.4,33.822
933.5,33.7943
933.6,33.7665
933.7,33.7388
933.8,33.711
933.9,33.6832
934,33.6554
934.1,33.6276
934.2,33.5997
934.3,33.5719
934.4,33.544
934.5,33.5161
934.6,33.4881
934.7,33.4602
934.8,33.4322
934.9,33.4042
935,33.3762
935.1,33.3482
935.2,33.3201
935.3,33.292
935.4,33.2639
935.5,33.2358
935.6,33.2077
935.7,33.1795
935.8,33.1514
935.9,33.1232
936,33.0949
936.1,33.0667
936.2,33.0384
936.3,33.0102
936.4,32.9819
936.5,32.9535
936.6,32.9252
936.7,32.8968
936.8,32.8685
936.9,32.8401
937,32.8116
937.1,32.7832
937.2,32.7547
937.3,32.7262
937.4,32.6977
937.5,32.6692
937.6,32.6407
937.7,32.6121
937.8,32.5835
937.9,32.5549
938,32.5263
938.1,32.4976
938.2,32.469
938.3,32.4403
938.4,32.4116
938.5,32.3829
938.6,32.3541
938.7,32.3253
938.8,32.2966
938.9,32.2677
939,32.2389
939.1,32.2101
939.2,32.1812
939.3,32.1523
939.4,32.1234
939.5,32.0945
939.6,32.0655
939.7,32.0365
939.8,32.0076
939.9,31.9785
940,31.9495
940.1,31.9205
940.2,31.8914
940.3,31.8623
940.4,31.8332
940.5,31.804
940.6,31.7749
940.7,31.7457
940.8,31.7165
940.9,31.6873
941,31.6581
941.1,31.6288
941.2,31.5995
941.3,31.5702
941.4,31.5409
941.5,31.5116
941.6,31.4823
941.7,31.453
941.8,31.4237
941.9,31.3944
942,31.365
942.1,31.3357
942.2,31.3064
942.3,31.2771
942.4,31.2478
942.5,31.2185
942.6,31.1892
942.7,31.1599
942.8,31.1306
942.9,31.1013
943,31.072
943.1,31.0427
943.2,31.0135
943.3,30.9842
943.4,30.9549
943.5,30.9256
943.6,30.8963
943.7,30.867
943.8,30.8377
943.9,30.8085
944,30.7792
944.1,30.7499
944.2,30.7206
944.3,30.6913
944.4,30.6621
944.5,30.6328
944.6,30.6035
944.7,30.5742
944.8,30.545
944.9,30.5157
945,30.4864
945.1,30.4572
945.2,30.4279
945.3,30.3986
945.4,30.3694
945.5,30.3401
945.6,30.3108
945.7,30.2816
945.8,30.2523
945.9,30.2231
946,30.1938
946.1,30.1646
946.2,30.1353
946.3,30.1061
946.4,30.0768
946.5,30.0476
946.6,30.0183
946.7,29.9891
946.8,29.9598
946.9,29.9306
947,29.9013
947.1,29.8721
947.2,29.8429
947.3,29.8136
947.4,29.7844
947.5,29.7551
947.6,29.7259
947.7,29.6967
947.8,29.6674
947.9,29.6382
948,29.609
948.1,29.5797
948.2,29.5505
948.3,29.5213
948.4,29.4921
948.5,29.4628
948.6,29.4336
948.7,29.4044
948.8,29.3752
948.9,29.346
949,29.3168
949.1,29.2875
949.2,29.2583
949.3,29.2291
949.4,29.1999
949.5,29.1707
949.6,29.1415
949.7,29.1123
949.8,29.0831
949.9,29.0539
950,29.0247
950.1,28.9955
950.2,28.9663
950.3,28.9371
950.4,28.9079
950.5,28.8787
950.6,28.8495
950.7,28.8203
950.8,28.7911
950.9,28.7619
951,28.7327
951.1,28.7035
951.2,28.6743
951.3,28.6451
951.4,28.6159
951.5,28.5868
951.6,28.5576
951.7,28.5284
951.8,28.4992
951.9,28.47
952,28.4409
952.1,28.4117
952.2,28.3825
952.3,28.3533
952.4,28.3242
952.5,28.295
952.6,28.2658
952.7,28.2367
952.8,28.2075
952.9,28.1783
953,28.1492
953.1,28.12
953.2,28.0908
953.3,28.0617
953.4,28.0325
953.5,28.0034
953.6,27.9742
953.7,27.945
953.8,27.9159
953.9,27.8867
954,27.8576
954.1,27.8284
954.2,27.7993
954.3,27.7701
954.4,27.741
954.5,27.7118
954.6,27.6827
954.7,27.6536
954.8,27.6244
954.9,27.5953
955,27.5661
955.1,27.537
955.2,27.5079
955.3,27.4787
955.4,27.4496
955.5,27.4205
955.6,27.3913
955.7,27.3622
955.8,27.3331
955.9,27.304
956,27.2749
956.1,27.2458
956.2,27.2167
956.3,27.1876
956.4,27.1586
956.5,27.1295
956.6,27.1004
956.7,27.0714
956.8,27.0423
956.9,27.0132
957,26.9842
957.1,26.9551
957.2,26.9261
957.3,26.8971
957.4,26.868
957.5,26.839
957.6,26.81
957.7,26.781
957.8,26.752
957.9,26.723
958,26.694
958.1,26.665
958.2,26.636
958.3,26.607
958.4,26.578
958.5,26.5491
958.6,26.5201
958.7,26.4911
958.8,26.4622
958.9,26.4332
959,26.4043
959.1,26.3753
959.2,26.3464
959.3,26.3175
959.4,26.2885
959.5,26.2596
959.6,26.2307
959.7,26.2018
959.8,26.1729
959.9,26.144
960,26.1151
960.1,26.0862
960.2,26.0573
960.3,26.0284
960.4,25.9995
960.5,25.9707
960.6,25.9418
960.7,25.9129
960.8,25.8841
960.9,25.8552
961,25.8264
961.1,25.7975
961.2,25.7687
961.3,25.7399
961.4,25.7111
961.5,25.6822
961.6,25.6534
961.7,25.6246
961.8,25.5958
961.9,25.567
962,25.5382
962.1,25.5094
962.2,25.4806
962.3,25.4519
962.4,25.4231
962.5,25.3943
962.6,25.3655
962.7,25.3368
962.8,25.308
962.9,25.2793
963,25.2505
963.1,25.2218
963.2,25.1931
963.3,25.1643
963.4,25.1356
963.5,25.1069
963.6,25.0782
963.7,25.0495
963.8,25.0208
963.9,24.9921
964,24.9634
964.1,24.9347
964.2,24.906
964.3,24.8773
964.4,24.8486
964.5,24.82
964.6,24.7913
964.7,24.7627
964.8,24.734
964.9,24.7054
965,24.6767
965.1,24.6481
965.2,24.6194
965.3,24.5908
965.4,24.5622
965.5,24.5336
965.6,24.505
965.7,24.4764
965.8,24.4478
965.9,24.4192
966,24.3906
966.1,24.362
966.2,24.3334
966.3,24.3048
966.4,24.2763
966.5,24.2477
966.6,24.2191
966.7,24.1906
966.8,24.162
966.9,24.1335
967,24.1049
967.1,24.0764
967.2,24.0479
967.3,24.0193
967.4,23.9908
967.5,23.9623
967.6,23.9338
967.7,23.9053
967.8,23.8768
967.9,23.8483
968,23.8198
968.1,23.7913
968.2,23.7628
968.3,23.7344
968.4,23.7059
968.5,23.6774
968.6,23.649
968.7,23.6205
968.8,23.5921
968.9,23.5636
969,23.5352
969.1,23.5067
969.2,23.4781
969.3,23.4495
969.4,23.4209
969.5,23.3922
969.6,23.3634
969.7,23.3346
969.8,23.3058
969.9,23.2769
970,23.2479
970.1,23.219
970.2,23.1899
970.3,23.1608
970.4,23.1317
970.5,23.1025
970.6,23.0733
970.7,23.044
970.8,23.0146
970.9,22.9853
971,22.9558
971.1,22.9263
971.2,22.8968
971.3,22.8672
971.4,22.8376
971.5,22.8079
971.6,22.7782
971.7,22.7484
971.8,22.7186
971.9,22.6887
972,22.6588
972.1,22.6288
972.2,22.5988
972.3,22.5687
972.4,22.5386
972.5,22.5084
972.6,22.4782
972.7,22.4479
972.8,22.4176
972.9,22.3873
973,22.3569
973.1,22.3264
973.2,22.2959
973.3,22.2653
973.4,22.2347
973.5,22.204
973.6,22.1733
973.7,22.1426
973.8,22.1118
973.9,22.0809
974,22.05
974.1,22.0191
974.2,21.9881
974.3,21.957
974.4,21.9259
974.5,21.8948
974.6,21.8636
974.7,21.8323
974.8,21.801
974.9,21.7697
975,21.7383
975.1,21.7068
975.2,21.6753
975.3,21.6438
975.4,21.6122
975.5,21.5806
975.6,21.5489
975.7,21.5171
975.8,21.4853
975.9,21.4535
976,21.4216
976.1,21.3897
976.2,21.3577
976.3,21.3257
976.4,21.2936
976.5,21.2615
976.6,21.2293
976.7,21.1971
976.8,21.1648
976.9,21.1324
977,21.1001
977.1,21.0676
977.2,21.0352
977.3,21.0027
977.4,20.9701
977.5,20.9375
977.6,20.9048
977.7,20.8721
977.8,20.8393
977.9,20.8065
978,20.7736
978.1,20.7407
978.2,20.7077
978.3,20.6747
978.4,20.6417
978.5,20.6085
978.6,20.5754
978.7,20.5422
978.8,20.5089
978.9,20.4756
979,20.4423
979.1,20.4089
979.2,20.3754
979.3,20.3419
979.4,20.3083
979.5,20.2747
979.6,20.2411
979.7,20.2074
979.8,20.1736
979.9,20.1398
980,20.106
980.1,20.0721
980.2,20.0382
980.3,20.0042
980.4,19.9702
980.5,19.9363
980.6,19.9024
980.7,19.8686
980.8,19.8347
980.9,19.801
981,19.7672
981.1,19.7335
981.2,19.6999
981.3,19.6662
981.4,19.6326
981.5,19.5991
981.6,19.5656
981.7,19.5321
981.8,19.4986
981.9,19.4652
982,19.4319
982.1,19.3985
982.2,19.3652
982.3,19.332
982.4,19.2987
982.5,19.2655
982.6,19.2324
982.7,19.1993
982.8,19.1662
982.9,19.1332
983,19.1002
983.1,19.0672
983.2,19.0343
983.3,19.0014
983.4,18.9685
983.5,18.9357
983.6,18.9029
983.7,18.8701
983.8,18.8374
983.9,18.8048
984,18.7721
984.1,18.7395
984.2,18.707
984.3,18.6744
984.4,18.6419
984.5,18.6095
984.6,18.5771
984.7,18.5447
984.8,18.5123
984.9,18.48
985,18.4478
985.1,18.4155
985.2,18.3833
985.3,18.3512
985.4,18.319
985.5,18.287
985.6,18.2549
985.7,18.2229
985.8,18.1909
985.9,18.159
986,18.1271
986.1,18.0952
986.2,18.0634
986.3,18.0316
986.4,17.9998
986.5,17.9681
986.6,17.9364
986.7,17.9048
986.8,17.8732
986.9,17.8416
987,17.81
987.1,17.7784
987.2,17.7468
987.3,17.7152
987.4,17.6835
987.5,17.6518
987.6,17.6201
987.7,17.5883
987.8,17.5565
987.9,17.5247
988,17.4929
988.1,17.461
988.2,17.4291
988.3,17.3971
988.4,17.3652
988.5,17.3331
988.6,17.3011
988.7,17.2691
988.8,17.237
988.9,17.2048
989,17.1727
989.1,17.1405
989.2,17.1083
989.3,17.076
989.4,17.0438
989.5,17.0115
989.6,16.9791
989.7,16.9468
989.8,16.9144
989.9,16.8819
990,16.8495
990.1,16.817
990.2,16.7845
990.3,16.7519
990.4,16.7193
990.5,16.6867
990.6,16.6541
990.7,16.6214
990.8,16.5887
990.9,16.556
991,16.5233
991.1,16.4905
991.2,16.4576
991.3,16.4248
991.4,16.3919
991.5,16.359
991.6,16.3261
991.7,16.2931
991.8,16.2601
991.9,16.2271
992,16.194
992.1,16.1609
992.2,16.1278
992.3,16.0948
992.4,16.062
992.5,16.0293
992.6,15.9967
992.7,15.9643
992.8,15.932
992.9,15.8999
993,15.8679
993.1,15.8361
993.2,15.8044
993.3,15.7729
993.4,15.7414
993.5,15.7102
993.6,15.6791
993.7,15.6481
993.8,15.6173
993.9,15.5866
994,15.5561
994.1,15.5257
994.2,15.4954
994.3,15.4653
994.4,15.4354
994.5,15.4056
994.6,15.3759
994.7,15.3464
994.8,15.317
994.9,15.2878
995,15.2587
995.1,15.2298
995.2,15.201
995.3,15.1723
995.4,15.1438
995.5,15.1154
995.6,15.0872
995.7,15.0591
995.8,15.0312
995.9,15.0034
996,14.9758
996.1,14.9483
996.2,14.9209
996.3,14.8937
996.4,14.8667
996.5,14.8397
996.6,14.813
996.7,14.7863
996.8,14.7598
996.9,14.7335
997,14.7073
997.1,14.6813
997.2,14.6553
997.3,14.6296
997.4,14.604
997.5,14.5785
997.6,14.5532
997.7,14.528
997.8,14.5029
997.9,14.4781
998,14.4533
998.1,14.4287
998.2,14.4042
998.3,14.3799
998.4,14.3557
998.5,14.3317
998.6,14.3078
998.7,14.2841
998.8,14.2605
998.9,14.2371
